timestamps,TP9,AF7,AF8,TP10,Right AUX
1864.967,595.215,159.668,32.227,44.922,-95.215
1864.971,310.059,37.598,20.02,32.227,-159.18
1864.975,-118.652,-143.555,16.113,13.184,-79.59
1864.979,96.191,-51.758,21.973,11.719,-63.477
1864.983,556.641,123.047,30.273,42.48,-140.137
1864.987,419.434,-5.371,21.484,37.109,-190.918
1864.991,-58.594,-306.152,5.371,5.859,95.703
1864.995,-51.27,-250.488,9.277,1.953,375
1864.999,433.105,207.031,27.344,25.391,-40.527
1865.002,505.859,217.773,27.832,35.645,-189.941
1865.006,-22.949,-19.531,21.484,1.953,-55.176
1865.01,-204.102,74.219,25.879,-19.043,-104.004
1865.014,273.438,236.816,31.25,22.949,-154.785
1865.018,530.273,134.766,30.273,57.129,-80.566
1865.022,85.938,20.02,27.832,29.297,-98.633
1865.025,-247.559,75.684,24.902,-8.789,-216.309
1865.029,93.262,173.34,33.691,33.691,-184.57
1865.033,465.82,78.125,36.621,88.867,225.098
1865.037,187.5,-72.754,27.832,52.734,390.625
1865.041,-247.07,130.371,33.691,24.902,-8.301
1865.045,-90.332,200.684,31.25,27.832,-158.203
1865.049,342.773,26.367,21.484,39.062,152.832
1865.053,277.832,41.504,19.531,48.34,343.262
1865.057,-157.227,249.023,28.809,32.227,3.418
1865.072,-237.305,168.457,31.25,11.23,-195.801
1865.076,192.383,152.344,34.18,20.508,-92.773
1865.08,367.188,147.461,30.273,38.574,32.227
1865.084,-70.801,96.191,23.926,18.555,-5.371
1865.088,-307.129,157.227,28.809,-2.93,-189.453
1865.092,88.867,-93.75,27.344,37.109,143.555
1865.096,418.945,-108.398,25.879,68.848,471.191
1865.1,80.078,243.164,24.414,20.02,44.434
1865.104,-312.5,125.977,19.043,-13.672,-194.336
1865.107,-25.391,45.41,21.973,-2.93,-32.715
1865.111,395.996,230.957,28.32,39.062,57.617
1865.115,178.711,197.266,28.809,41.992,-45.898
1865.105,-231.445,32.227,19.043,-3.418,-109.375
1865.109,-118.652,-10.254,17.578,9.766,-72.754
1865.113,360.352,172.363,38.086,75.195,-184.082
1865.117,356.445,194.824,38.574,70.312,-276.367
1865.121,-123.047,0,27.832,14.648,-240.723
1865.125,-207.52,-90.332,24.902,-14.648,-153.809
1865.129,253.418,44.922,26.855,17.09,-107.422
1865.133,446.777,180.664,29.297,31.25,-207.52
1865.137,8.301,-63.965,21.484,8.789,-116.699
1865.14,-265.137,-219.238,19.043,8.789,153.32
1865.144,96.191,160.645,29.785,9.277,-70.312
1865.148,416.504,225.098,30.762,24.902,-226.074
1865.163,109.375,1.465,29.297,3.418,-191.895
1865.166,-277.344,-73.242,26.367,-13.672,-137.695
1865.17,-39.551,8.789,20.996,9.277,-47.363
1865.174,432.617,163.574,24.414,25.879,-146.973
1865.178,289.062,-81.543,11.23,20.508,74.707
1865.182,-162.109,-253.906,11.23,8.301,366.211
1865.186,-128.906,123.535,30.762,-3.418,117.676
1865.19,302.246,192.871,34.668,8.301,-40.039
1865.194,330.078,91.797,30.273,4.395,-59.082
1865.198,-114.746,90.82,24.414,-21.973,-145.996
1865.202,-252.93,116.211,17.578,-39.062,-223.145
1865.206,126.953,72.754,14.16,0.488,-160.645
1865.207,290.039,-15.625,16.602,25.391,162.598
1865.211,-91.309,137.695,15.625,-18.555,180.664
1865.215,-387.695,204.102,5.859,-65.43,-97.656
1865.219,-126.953,30.762,4.883,-36.621,38.086
1865.223,270.508,34.668,12.695,1.465,141.602
1865.227,42.48,48.34,14.16,-26.855,48.828
1865.23,-379.883,-16.602,10.254,-54.688,-13.672
1865.234,-219.727,-113.281,-1.465,-68.848,0.977
1865.238,250.977,-171.875,0.977,-24.414,265.625
1865.242,193.359,168.945,11.23,-20.996,142.578
1865.246,-267.578,205.078,7.324,-73.242,-116.699
1865.25,-288.574,5.371,3.418,-68.848,-131.348
1865.252,183.105,84.473,4.395,-24.414,-191.895
1865.256,316.895,174.805,6.836,-20.02,-225.586
1865.26,-115.723,19.043,0.488,-42.48,-146.484
1865.264,-315.918,-191.895,-3.418,-27.832,8.789
1865.268,83.008,-10.254,3.418,21.484,43.457
1865.272,367.188,144.043,2.441,23.438,-37.598
1865.276,13.184,70.801,0.977,8.789,-53.711
1865.28,-343.75,-146.973,-0.977,-19.531,263.184
1865.284,-62.012,-100.098,2.93,-17.09,308.105
1865.287,361.328,326.172,18.066,28.809,-104.98
1865.291,124.512,203.125,13.672,24.414,-88.867
1865.295,-303.711,12.207,0,-27.344,-92.285
1865.298,-167.969,103.027,-1.953,-39.551,-243.652
1865.301,278.32,198.73,6.836,2.93,-242.188
1865.305,248.047,71.777,10.254,3.906,-100.586
1865.309,-210.938,-11.719,5.859,-34.668,-28.32
1865.313,-231.445,59.57,7.324,-17.578,-150.879
1865.317,225.586,44.434,10.254,26.367,-209.961
1865.321,374.023,-66.895,13.184,59.082,45.898
1865.325,-47.852,-239.258,14.16,29.785,297.852
1865.329,-259.277,19.043,20.996,-17.578,6.348
1865.333,126.465,261.23,25.879,1.465,-205.078
1865.337,399.414,59.082,15.625,28.32,3.418
1865.34,66.406,-56.152,9.766,17.09,48.828
1865.342,-297.363,44.922,12.207,-14.16,-180.176
1865.346,-53.711,154.785,18.066,10.254,-254.883
1865.35,357.91,-14.16,9.766,38.086,104.98
1865.354,168.457,-25.391,1.465,1.953,187.988
1865.358,-259.277,122.559,0,-29.297,-150.879
1865.362,-165.527,46.875,-1.465,-12.207,-167.48
1865.366,296.875,-72.754,3.906,48.34,267.578
1865.37,317.383,-25.879,9.277,58.105,435.547
1865.374,-133.789,259.277,11.719,-8.789,-22.461
1865.377,-247.559,126.465,3.906,-11.23,-110.84
1865.381,206.055,71.777,5.859,42.48,-10.254
1865.385,408.203,251.953,12.695,60.547,23.438
1865.389,-14.648,214.844,11.23,21.484,-67.871
1865.393,-292.969,1.953,3.906,-12.207,-125.977
1865.397,61.523,9.766,10.742,8.301,-80.566
1865.4,371.582,213.379,20.02,31.25,-128.418
1865.404,44.434,167.48,13.672,20.02,-199.219
1865.408,-341.309,-97.656,1.465,-4.883,-106.445
1865.412,-144.043,-153.809,3.418,10.254,33.203
1865.416,304.199,196.289,16.113,47.363,-57.617
1865.42,198.73,295.898,18.555,40.039,-192.871
1865.424,-285.645,-24.414,11.719,15.137,-92.773
1865.428,-263.184,10.742,16.113,16.113,34.18
1865.432,197.754,283.203,24.902,47.852,-78.613
1865.447,253.906,171.387,20.508,50.781,-34.18
1865.451,-178.223,-22.949,16.602,24.414,87.891
1865.455,-333.984,-20.02,15.137,11.719,99.121
1865.459,104.004,190.43,18.555,43.457,-15.625
1865.463,305.176,284.668,21.484,65.43,-76.66
1865.466,-102.051,-108.398,10.742,54.199,227.539
1865.47,-354.98,-224.121,15.625,34.668,356.934
1865.474,-29.785,259.277,34.18,19.043,-93.262
1865.478,327.148,295.41,34.668,41.992,-187.012
1865.482,71.289,96.191,31.25,41.992,-4.883
1865.486,-316.406,154.785,34.18,15.625,-58.105
1865.49,-140.625,215.82,33.203,20.02,-251.465
1865.493,275.879,175.781,35.645,54.199,-143.555
1865.497,190.918,135.254,37.109,43.457,-28.32
1865.501,-254.883,55.664,27.832,12.207,-79.59
1865.505,-267.578,108.887,24.902,23.926,-112.793
1865.509,193.359,138.672,20.996,65.43,-14.648
1865.513,294.922,-20.02,18.066,91.797,81.055
1865.517,-133.301,36.621,21.484,47.363,-53.711
1865.521,-325.684,198.242,23.438,12.695,-152.832
1865.524,75.684,105.957,22.949,42.48,-26.855
1865.528,358.398,4.883,19.043,81.055,289.062
1865.532,11.23,247.559,22.949,48.34,32.227
1865.536,-321.777,210.449,23.438,2.93,-184.57
1865.537,-36.621,140.137,21.973,8.789,-64.941
1865.541,351.562,223.633,21.484,46.875,-36.133
1865.545,115.234,156.25,23.438,50.781,40.039
1865.549,-291.992,85.449,16.113,17.578,17.578
1865.553,-193.359,-21.973,-16.602,31.738,193.359
1865.557,254.395,36.621,-17.09,76.66,260.254
1865.561,255.371,179.688,25.391,66.895,79.102
1865.565,-236.816,99.121,39.062,14.648,-8.789
1865.568,-310.059,-127.93,29.785,0,186.523
1865.572,164.551,-25.391,37.109,40.039,414.062
1865.576,346.191,378.418,59.57,48.828,33.691
1865.58,-75.684,192.383,52.246,18.555,-121.094
1865.582,-301.758,25.879,42.969,8.789,-186.523
1865.586,47.363,177.734,45.41,34.18,-228.516
1865.59,339.355,257.324,48.828,59.082,-198.73
1865.594,30.273,126.465,43.457,40.039,-83.984
1865.598,-343.262,18.066,41.504,7.324,-97.656
1865.602,-109.375,83.496,51.758,28.32,-103.027
1865.606,299.805,181.641,59.082,62.012,-46.387
1865.61,124.512,96.191,59.57,61.523,-12.695
1865.614,-339.844,-166.016,58.105,49.805,322.266
1865.617,-267.578,158.691,67.383,41.504,82.031
1865.621,204.59,461.914,73.73,64.941,-119.629
1865.625,220.215,249.023,64.453,63.477,38.574
1865.627,-234.375,230.469,65.918,28.32,-38.086
1865.631,-340.82,267.578,69.336,10.742,-171.875
1865.635,93.262,227.051,69.824,26.855,-126.465
1865.639,297.852,80.566,69.824,67.871,195.312
1865.643,-106.934,97.656,69.824,36.133,104.492
1865.647,-395.996,167.969,65.918,-4.883,-147.461
1865.651,-51.27,208.008,64.941,24.902,-99.609
1865.655,306.152,139.648,61.035,60.059,316.895
1865.658,22.949,81.055,49.316,56.152,314.941
1865.662,-375.488,254.395,48.34,11.23,-84.961
1865.666,-175.781,249.512,45.898,4.883,-51.27
1865.67,273.438,231.445,47.852,49.805,47.363
1865.673,159.668,287.109,51.27,40.527,-8.301
1865.676,-283.203,239.746,41.016,-10.254,-190.43
1865.68,-262.207,102.051,28.809,1.953,-242.676
1865.684,196.777,200.684,27.344,52.246,-95.215
1865.688,293.457,308.105,29.297,70.312,-28.809
1865.692,-146.484,115.234,26.855,16.602,-156.25
1865.696,-335.449,-45.898,20.996,-4.883,-9.766
1865.7,82.52,-1.465,17.578,47.852,232.422
1865.704,373.535,363.281,25.391,74.219,50.781
1865.708,13.184,353.027,15.625,51.27,-187.012
1865.712,-320.312,106.445,1.953,18.066,-226.562
1865.716,-45.41,147.949,2.441,27.832,-84.961
1865.718,353.027,343.75,7.324,66.895,18.555
1865.721,142.578,334.961,7.324,60.059,-149.414
1865.725,-311.523,-41.016,-7.812,34.18,113.77
1865.729,-171.387,19.043,-12.695,32.227,250.488
1865.733,300.293,381.836,-8.301,62.012,-107.422
1865.737,234.863,249.023,-10.254,62.988,-106.934
1865.741,-235.84,-63.965,-18.555,22.949,202.637
1865.745,-289.062,-7.324,-18.555,20.508,257.324
1865.749,184.082,413.574,-4.395,49.805,-129.883
1865.753,304.199,351.562,-7.324,74.219,-131.836
1865.757,-145.508,176.758,-8.301,28.809,-50.293
1865.761,-349.609,188.477,-13.184,-14.648,-198.73
1865.765,36.133,261.23,-14.16,18.555,-264.648
1865.769,325.684,186.035,-20.508,46.875,-55.176
1865.773,-13.672,75.195,-31.738,18.066,14.648
1865.777,-354.492,177.734,-23.438,-14.16,-141.602
1865.781,-78.125,249.512,-18.066,-12.207,-151.367
1865.785,320.801,90.332,-18.555,32.715,60.059
1865.789,102.539,-98.633,-23.926,41.504,382.812
1865.793,-318.848,160.156,-18.555,-0.488,130.371
1865.796,-194.824,317.871,-15.625,10.742,-152.344
1865.8,247.559,159.18,-21.973,50.293,-49.316
1865.804,234.863,142.578,-21.484,44.434,-53.711
1865.808,-205.566,200.684,-16.113,9.766,-164.551
1865.822,-270.508,164.062,-17.09,-6.348,-140.625
1865.826,165.039,164.551,-18.555,16.113,-21.484
1865.83,316.406,121.582,-20.02,44.434,7.812
1865.833,-84.961,40.527,-22.461,23.926,-39.062
1865.837,-329.102,70.312,-23.438,-3.418,-135.742
1865.841,18.555,-4.395,-19.531,24.414,148.438
1865.845,340.332,-187.5,-7.812,62.012,632.324
1865.849,-0.977,105.957,4.395,25.391,206.055
1865.853,-397.949,269.531,-0.977,-28.32,-341.797
1865.857,-156.738,203.125,0.977,-13.184,-267.578
1865.861,247.559,358.398,34.18,13.672,-129.883
1865.865,59.57,342.285,57.129,-25.391,-145.996
1865.867,-446.289,129.883,56.641,-105.469,-196.289
1865.871,-426.758,117.188,73.242,-130.371,-234.863
1865.874,-0.977,400.391,104.004,-137.207,-181.152
1865.878,-34.18,467.773,113.281,-172.852,-122.07
1865.882,-520.996,308.594,116.699,-226.562,-152.832
1865.886,-628.418,259.277,124.023,-288.086,-128.418
1865.89,-270.996,463.379,138.184,-286.133,0.488
1865.894,-142.09,584.473,142.578,-273.438,22.461
1865.898,-500.488,438.965,127.441,-293.945,0
1865.902,-783.691,207.52,114.746,-315.43,320.312
1865.906,-465.82,580.078,118.164,-297.852,167.48
1865.91,-82.52,868.164,108.887,-249.512,-151.855
1865.912,-352.051,622.07,82.031,-250,-109.863
1865.916,-769.043,569.336,69.824,-272.461,-150.879
1865.92,-576.66,562.5,72.266,-249.512,-62.012
1865.924,-129.395,625,70.312,-211.914,-46.875
1865.928,-217.285,499.023,62.5,-185.059,111.816
1865.932,-654.785,360.352,59.57,-183.105,219.727
1865.936,-647.461,538.086,57.617,-174.805,-55.664
1865.939,-149.902,656.25,49.316,-131.348,-179.199
1865.943,-54.199,317.871,28.32,-91.797,82.52
1865.947,-489.746,204.102,21.973,-78.125,236.328
1865.951,-629.883,591.309,30.273,-85.938,-164.551
1865.955,-219.727,525.879,22.461,-39.062,-204.102
1865.957,47.852,418.945,13.672,14.16,-86.426
1865.961,-286.621,409.18,11.719,-0.977,-198.242
1865.964,-609.863,365.234,6.836,-13.672,-243.164
1865.968,-320.312,311.035,1.465,17.09,-100.586
1865.972,96.191,292.969,-1.465,53.711,-2.441
1865.976,-130.859,290.527,0.977,48.828,40.527
1865.98,-571.289,234.375,0,11.23,40.527
1865.984,-414.551,119.629,-0.977,20.996,89.355
1865.988,189.941,137.695,10.254,84.473,341.797
1865.992,258.301,413.574,15.137,79.102,121.094
1865.996,-287.109,311.035,0.977,43.457,-166.504
1866,-408.203,93.262,-5.859,49.316,32.227
1866.002,46.387,287.109,3.418,90.332,52.734
1866.006,146.973,479.492,6.836,92.285,-151.367
1866.01,-325.684,258.301,0.488,55.664,-128.906
1866.014,-538.574,6.348,0.488,47.852,98.145
1866.018,-158.203,242.188,5.371,63.965,183.105
1866.022,132.812,432.617,10.742,100.098,78.125
1866.026,-220.215,269.531,10.742,84.473,27.344
1866.029,-563.477,-30.273,-4.883,41.504,177.734
1866.033,-281.738,116.211,-0.977,52.734,220.215
1866.037,148.926,590.332,12.695,78.613,-69.824
1866.041,-54.688,419.922,-3.906,53.223,-108.398
1866.045,-536.133,239.746,-12.695,30.762,-133.789
1866.049,-443.359,290.039,-12.207,59.57,-182.129
1866.053,43.945,439.453,-13.672,87.891,-145.996
1866.057,22.949,381.348,-22.461,86.914,-90.82
1866.061,-469.727,187.5,-29.297,44.922,-10.742
1866.065,-526.855,283.691,-22.949,28.32,-160.156
1866.069,-83.496,304.199,-26.855,59.57,-238.77
1866.073,99.609,165.039,-35.156,83.008,2.441
1866.077,-335.449,-52.734,-37.109,42.969,132.324
1866.081,-578.125,197.266,-24.902,-5.371,-224.121
1866.085,-125.488,394.531,-15.137,26.855,-342.773
1866.088,178.223,297.363,-7.812,82.031,-131.348
1866.092,-140.625,276.367,-4.395,55.664,-66.406
1866.093,-509.277,276.367,-5.859,24.414,-167.48
1866.097,-249.023,275.391,-4.395,51.27,-132.812
1866.101,237.305,216.309,-2.93,80.566,42.48
1866.105,2.441,158.203,-6.348,49.316,32.227
1866.109,-520.508,166.992,-6.836,-1.953,-67.871
1866.113,-434.57,200.195,-2.441,-13.672,-127.441
1866.117,61.035,39.062,-7.324,20.02,114.746
1866.121,108.887,-103.516,-9.277,37.109,474.609
1866.125,-343.262,260.742,4.883,-21.484,109.375
1866.128,-506.836,309.082,6.348,-51.27,-253.418
1866.132,-97.656,241.211,10.742,-16.113,-133.301
1866.136,130.371,375,24.902,13.672,-53.711
1866.139,-261.23,264.16,28.32,1.953,-149.902
1866.143,-515.137,56.152,21.484,-13.184,-191.406
1866.147,-202.148,65.918,24.414,7.324,-121.582
1866.15,137.207,236.328,33.203,71.289,-93.75
1866.154,-103.516,170.41,29.297,67.871,-126.465
1866.158,-514.648,-103.516,20.02,34.668,73.73
1866.162,-379.395,-223.633,15.625,34.668,252.441
1866.166,158.203,41.504,36.133,51.27,-11.719
1866.17,113.77,202.637,48.828,59.57,-219.727
1866.174,-436.035,-89.355,33.203,20.508,0.488
1866.178,-408.203,-189.453,34.18,-0.488,203.125
1866.182,38.574,207.52,49.316,15.625,-64.941
1866.197,80.078,190.43,40.527,0.977,-232.91
1866.201,-347.168,-31.25,28.32,-38.086,-198.73
1866.205,-529.785,-91.797,29.785,-34.668,-129.883
1866.209,-102.539,72.266,39.062,-8.789,-77.148
1866.213,132.324,219.727,45.898,7.812,-112.793
1866.217,-302.734,-146.484,36.621,21.484,292.969
1866.22,-637.695,-305.664,24.414,-6.836,573.242
1866.224,-318.359,93.75,32.227,-40.039,102.051
1866.228,57.129,207.52,44.434,12.207,-158.203
1866.232,-159.668,-98.145,39.551,40.039,76.172
1866.236,-569.824,-87.402,39.551,15.137,51.758
1866.24,-442.383,195.801,56.641,8.301,-213.867
1866.242,55.664,125.488,64.941,52.246,-140.625
1866.246,-55.664,40.039,59.57,63.477,-107.422
1866.25,-571.289,66.895,57.129,45.898,-171.387
1866.254,-584.473,83.008,60.059,51.758,-199.219
1866.258,-204.59,19.043,59.57,50.293,-127.93
1866.262,-85.449,-11.719,61.523,52.734,34.668
1866.266,-496.582,-49.316,57.129,45.41,-41.016
1866.27,-668.457,1.953,58.594,16.602,-258.789
1866.274,-262.207,-18.555,57.617,44.922,-82.52
1866.277,-4.395,-176.27,45.41,60.547,297.363
1866.281,-310.547,128.418,55.176,23.926,123.535
1866.285,-728.027,195.312,53.223,-10.254,-150.391
1866.287,-481.445,-57.617,43.457,-19.043,13.672
1866.291,21.484,15.625,50.293,17.578,42.969
1866.295,-208.496,70.312,55.664,13.672,-88.867
1866.299,-736.328,-59.082,51.758,-18.066,-140.137
1866.303,-656.25,-159.668,46.387,3.906,8.301
1866.307,-233.398,-87.891,48.34,32.715,169.434
1866.31,-235.352,122.07,52.246,21.484,-5.859
1866.314,-611.328,109.863,45.898,-6.836,-177.734
1866.318,-729.492,-228.027,36.621,0.977,1.465
1866.322,-341.309,-107.91,52.734,30.762,116.699
1866.326,-111.328,307.617,63.477,26.855,-166.992
1866.33,-515.625,52.734,44.922,-5.859,-119.141
1866.332,-784.18,-81.543,41.504,-16.602,-27.344
1866.336,-385.254,128.418,50.293,33.203,-104.98
1866.34,-48.828,201.66,53.711,56.152,-170.898
1866.344,-373.047,23.926,47.852,52.246,25.391
1866.348,-760.742,-131.348,30.273,55.176,53.223
1866.352,-456.055,-33.691,28.32,18.555,-87.402
1866.356,42.969,107.422,30.762,16.602,-38.086
1866.359,-216.797,-31.25,21.973,54.199,106.445
1866.363,-651.367,-271.484,17.578,33.691,244.629
1866.367,-571.289,35.156,27.832,-16.113,-63.477
1866.371,-196.289,218.262,32.227,11.23,-222.656
1866.375,-131.348,46.875,31.25,27.344,-43.945
1866.378,-557.617,-35.645,30.762,-14.16,-67.871
1866.382,-647.461,-74.707,25.879,-18.066,-218.262
1866.386,-137.695,-38.086,25.879,16.602,-166.504
1866.39,-7.812,-177.734,22.949,41.504,219.238
1866.394,-464.844,-309.57,19.531,26.855,218.262
1866.398,-703.613,-100.098,31.25,1.465,-58.594
1866.402,-436.035,-19.043,34.18,20.02,-110.84
1866.405,-40.527,-171.875,32.227,66.406,115.723
1866.409,-270.508,-146.973,36.133,70.312,249.023
1866.413,-711.914,95.215,35.645,22.949,-119.141
1866.417,-470.215,-39.062,31.25,38.086,-181.152
1866.421,-37.598,-50.781,36.133,88.379,-106.934
1866.423,-118.652,50.781,42.969,75.684,-104.004
1866.427,-508.301,-23.926,25.391,41.992,-147.461
1866.431,-473.145,-179.199,6.348,77.148,-150.879
1866.435,37.109,-154.297,18.066,96.191,-87.891
1866.439,115.723,-107.422,22.949,54.688,-68.359
1866.443,-373.535,-201.66,13.184,16.602,-76.172
1866.447,-583.496,-290.039,0,-10.254,37.109
1866.45,-65.918,-439.453,-9.277,23.438,450.684
1866.454,280.273,-130.371,17.09,51.758,343.75
1866.458,-131.348,67.871,29.785,25.391,-108.887
1866.462,-426.27,-206.543,11.719,1.465,-50.781
1866.466,-108.887,-173.34,14.648,6.836,-4.883
1866.467,315.43,-31.738,17.578,36.133,-173.828
1866.471,111.816,-151.367,7.812,40.039,-266.602
1866.475,-336.914,-364.258,2.93,25.391,-110.352
1866.479,-187.5,-253.906,7.812,53.223,-14.16
1866.483,313.477,-66.895,10.742,62.012,-82.52
1866.487,265.625,-190.43,6.348,48.828,-75.195
1866.491,-221.191,-475.586,-5.859,22.461,256.348
1866.494,-268.066,-645.996,-4.883,40.039,480.469
1866.498,269.531,-99.121,18.066,78.613,88.867
1866.502,462.891,85.449,18.555,91.309,-161.621
1866.506,34.18,-169.922,6.836,53.711,-194.824
1866.51,-181.641,-102.051,1.953,15.625,-260.254
1866.514,243.164,6.348,3.906,42.969,-300.781
1866.518,554.688,-35.645,7.812,32.227,-173.828
1866.522,212.891,-145.02,1.465,0,-65.918
1866.525,-108.398,-130.371,1.465,2.441,-161.133
1866.529,150.391,-68.848,1.465,20.02,-245.605
1866.533,545.898,-169.922,-17.09,29.297,-15.137
1866.537,391.602,-292.969,-26.855,31.738,246.582
1866.541,-85.938,-121.094,-14.648,2.441,-62.5
1866.545,-83.496,-51.758,-6.836,-25.879,-245.117
1866.549,407.227,-205.566,-14.648,18.555,-28.32
1866.553,425.293,-220.703,-14.648,43.945,52.734
1866.557,-95.703,16.113,-9.766,9.277,-173.828
1866.572,-178.223,8.789,-18.066,6.348,-177.246
1866.576,264.16,-33.691,-23.438,0.977,-70.312
1866.58,418.457,-44.922,-27.832,12.695,-21.973
1866.584,-9.766,-73.73,-28.809,37.598,-42.48
1866.588,-292.48,-43.457,-30.273,53.711,-216.797
1866.592,61.523,-270.02,-40.039,69.336,61.523
1866.596,394.531,-259.277,-34.668,55.176,268.066
1866.6,98.145,83.008,-19.043,0.977,-155.762
1866.603,-292.969,33.203,-28.32,-46.875,-332.031
1866.607,-96.191,-111.328,-34.668,-38.086,-79.102
1866.611,312.988,-3.418,-26.855,4.883,5.371
1866.615,173.828,90.82,-21.484,-6.348,-140.625
1866.605,-291.016,-60.059,-24.902,-20.996,-166.504
1866.609,-268.555,-168.457,-29.297,-2.93,-106.445
1866.613,218.262,66.406,-23.438,16.113,-99.121
1866.617,286.621,155.762,-28.809,23.926,-133.789
1866.621,-203.613,-47.852,-36.621,8.301,-36.133
1866.625,-417.969,-194.336,-33.203,-9.277,0.977
1866.629,-24.902,-48.828,-15.625,29.297,-83.984
1866.633,203.125,115.723,-8.789,80.078,-218.262
1866.636,-243.652,-100.098,-25.391,71.777,-95.215
1866.64,-591.309,-311.035,-33.691,36.621,178.223
1866.644,-252.93,77.637,-18.555,14.648,-50.293
1866.648,78.125,230.957,-15.137,30.762,-161.621
1866.662,-193.359,-53.711,-18.066,-11.23,-123.047
1866.666,-620.605,-199.219,-17.578,-66.895,-229.492
1866.67,-518.066,-109.375,-24.414,-59.082,-131.836
1866.674,-167.969,37.598,-19.531,-12.695,-145.508
1866.678,-295.898,-177.246,-17.09,-20.02,20.996
1866.682,-701.172,-345.215,-16.602,-61.035,318.848
1866.686,-725.586,-13.184,-5.859,-56.641,27.344
1866.69,-343.75,113.281,-4.883,2.93,-216.797
1866.694,-303.223,-70.801,-7.324,11.719,-44.434
1866.697,-734.375,-67.871,-5.371,-8.789,10.254
1866.701,-891.602,132.812,-1.465,-9.766,-281.738
1866.705,-488.281,74.219,-12.207,0.977,-277.344
1866.707,-207.52,56.152,-11.23,23.926,-215.332
1866.711,-471.191,84.473,-2.441,32.227,-240.723
1866.715,-707.52,-14.16,-12.695,20.508,-315.918
1866.719,-453.125,-148.926,-17.578,7.812,-227.539
1866.723,-56.641,-106.934,-6.836,5.859,-37.109
1866.727,-247.559,-52.734,-13.672,-47.363,-48.34
1866.731,-684.57,-131.348,-32.227,-89.844,-143.066
1866.735,-570.801,-211.426,-31.738,-56.152,-34.668
1866.739,-122.559,-216.797,-17.578,8.301,176.758
1866.743,-125.488,51.27,-11.719,-5.859,-105.469
1866.746,-526.367,23.926,-24.902,-37.109,-346.68
1866.75,-606.934,-176.758,-39.551,-28.32,-311.035
1866.752,-229.98,-29.297,-45.41,-28.809,-244.629
1866.756,-101.562,89.355,-40.039,-13.672,-256.836
1866.76,-494.141,-97.168,-45.41,-9.277,-243.652
1866.764,-723.633,-354.004,-59.082,1.953,-62.988
1866.768,-333.496,-191.895,-51.27,-3.418,-69.824
1866.772,9.277,36.621,-45.898,10.254,-114.746
1866.776,-356.934,-84.473,-61.035,42.48,-110.352
1866.78,-719.238,-374.023,-86.914,42.48,84.961
1866.784,-448.73,-286.621,-95.215,10.742,216.797
1866.787,-45.898,212.402,-91.797,1.465,-190.918
1866.791,-183.105,138.672,-104.492,14.648,-284.18
1866.795,-574.219,-46.875,-109.863,-36.133,-177.246
1866.798,-500.488,22.949,-117.188,-52.246,-243.652
1866.802,-68.848,118.164,-116.699,-6.836,-260.254
1866.806,-39.551,-46.387,-113.281,15.137,-225.586
1866.81,-446.777,-172.363,-119.629,-17.09,-225.098
1866.814,-509.766,-83.008,-125.977,-32.227,-233.887
1866.818,-33.203,-56.641,-124.023,-7.324,-231.445
1866.822,168.457,-141.602,-118.164,-1.953,-37.598
1866.826,-218.262,-346.191,-118.164,-21.484,276.855
1866.829,-492.676,-106.934,-99.609,-28.809,78.613
1866.833,-164.062,168.945,-85.449,3.418,-191.895
1866.837,148.926,-7.812,-90.82,28.32,61.523
1866.841,-179.199,-109.375,-105.957,31.25,122.559
1866.842,-578.125,18.066,-110.84,14.648,-137.207
1866.846,-375,62.988,-93.75,2.93,-154.785
1866.85,67.871,-28.809,-89.355,40.039,-14.16
1866.854,-66.406,-45.41,-100.098,24.414,-30.273
1866.858,-508.789,-21.484,-105.469,-31.25,-240.723
1866.862,-475.098,-76.172,-102.539,-14.648,-251.953
1866.866,-22.949,-174.316,-100.098,9.277,264.648
1866.87,36.133,-171.387,-94.238,27.344,442.383
1866.874,-404.785,63.965,-89.355,25.879,-135.254
1866.877,-485.84,-12.207,-95.703,-2.93,-268.066
1866.881,-72.754,-36.621,-88.379,-5.859,-111.328
1866.885,110.84,122.07,-77.637,11.719,-45.898
1866.889,-215.332,113.281,-79.59,15.625,-125.977
1866.893,-467.285,-92.285,-83.984,5.859,-153.809
1866.897,-155.762,-82.52,-83.496,15.137,-66.406
1866.9,232.422,136.719,-71.777,73.73,-121.094
1866.904,-14.16,83.008,-71.289,75.684,-208.984
1866.908,-424.805,-229.004,-87.402,64.941,-44.922
1866.912,-240.234,-299.316,-82.031,68.359,144.043
1866.916,245.605,76.172,-56.152,66.406,-55.176
1866.92,236.816,155.762,-61.035,93.262,-195.801
1866.924,-219.727,-185.547,-84.961,71.777,-32.227
1866.928,-232.91,-205.078,-84.961,20.996,46.387
1866.932,228.516,48.828,-82.031,45.41,-119.629
1866.933,257.324,25.879,-82.52,67.383,-28.809
1866.937,-200.195,-173.34,-81.055,47.852,64.453
1866.941,-380.371,-206.055,-75.195,29.297,78.125
1866.945,55.176,55.176,-75.195,20.02,-31.738
1866.949,355.469,194.824,-78.125,37.109,-162.598
1866.953,-24.902,-147.461,-86.426,61.035,221.191
1866.957,-378.418,-352.539,-94.238,48.828,439.453
1866.961,-82.031,97.656,-61.035,62.5,-3.418
1866.964,304.199,178.223,-41.016,109.863,-135.254
1866.968,134.277,-50.293,-60.059,77.637,-23.926
1866.972,-227.051,-52.246,-65.43,45.41,-158.691
1866.976,-125.977,52.246,-52.734,72.266,-255.371
1866.992,289.062,58.105,-54.688,103.516,-137.695
1866.996,296.387,-19.531,-63.477,102.539,-88.379
1867,-151.367,-88.867,-64.941,102.539,-84.961
1867.004,-250.977,-4.883,-74.219,94.238,-173.828
1867.008,203.613,6.348,-90.332,98.633,-120.117
1867.012,353.027,-144.531,-90.82,92.285,92.773
1867.016,-45.898,-77.637,-86.914,39.062,44.434
1867.02,-281.738,50.781,-94.238,13.672,-155.762
1867.024,28.809,-44.434,-100.586,24.414,-52.246
1867.027,320.312,-99.121,-97.656,26.367,230.957
1867.031,40.527,101.074,-89.844,4.395,-19.531
1867.035,-323.73,13.672,-88.867,35.645,-200.684
1867.037,-104.98,-53.223,-89.355,70.312,-125.488
1867.041,251.465,95.215,-86.426,64.941,-98.145
1867.045,31.25,69.824,-98.145,70.801,-23.438
1867.049,-374.023,-43.457,-111.816,65.918,-38.086
1867.053,-310.059,-176.758,-99.609,73.242,213.867
1867.057,83.496,-79.59,-88.379,111.816,475.586
1867.061,92.285,182.617,-85.449,101.562,164.062
1867.065,-345.215,95.703,-89.355,59.57,-70.312
1867.069,-495.117,-174.316,-96.68,83.008,140.625
1867.072,-116.211,-23.926,-83.008,131.348,268.066
1867.076,86.426,323.242,-66.406,90.82,-114.746
1867.08,-266.113,113.77,-77.148,15.625,-146.973
1867.083,-527.832,-12.695,-83.984,5.371,-54.688
1867.087,-239.746,109.375,-77.148,36.133,-127.93
1867.09,64.941,208.984,-70.312,44.922,-174.316
1867.094,-210.938,58.594,-75.195,41.016,-94.727
1867.098,-602.051,-73.73,-79.102,25.391,-68.359
1867.102,-416.504,5.859,-79.102,48.828,7.324
1867.106,-28.809,103.027,-70.312,88.379,61.523
1867.11,-135.254,3.906,-68.359,68.848,89.355
1867.114,-574.707,-311.035,-80.566,56.152,424.805
1867.118,-592.773,-22.461,-67.383,52.246,187.988
1867.122,-142.578,340.332,-47.852,68.359,-94.238
1867.126,-80.078,161.621,-49.316,78.613,41.504
1867.127,-500.977,57.617,-49.316,66.895,-61.035
1867.131,-682.617,83.008,-45.41,92.285,-172.363
1867.135,-339.844,52.246,-49.805,134.277,-178.711
1867.139,-96.68,-95.703,-53.711,119.629,35.156
1867.143,-433.594,-58.105,-48.34,78.613,52.734
1867.146,-720.215,0.977,-55.664,25.879,-179.688
1867.15,-462.402,33.203,-55.176,-13.184,-81.543
1867.154,-180.176,-31.25,-47.363,17.09,268.555
1867.158,-412.109,-110.352,-50.781,17.09,320.801
1867.162,-799.805,64.453,-45.41,-10.742,-64.453
1867.166,-699.219,58.105,-48.34,11.719,-174.805
1867.17,-274.902,47.363,-50.781,55.176,-14.648
1867.173,-270.02,124.023,-40.039,47.852,-23.926
1867.176,-651.367,86.426,-34.18,12.695,-143.555
1867.18,-685.059,-22.461,-36.133,33.691,-58.594
1867.184,-289.062,22.949,-32.715,61.035,-2.93
1867.188,-165.039,82.031,-35.156,62.012,-126.953
1867.192,-529.297,-75.195,-45.41,46.875,-189.941
1867.196,-689.941,-216.797,-40.527,24.902,-86.914
1867.2,-317.383,-184.082,-34.18,30.762,142.578
1867.204,-46.387,180.176,-37.598,41.504,-10.742
1867.208,-347.656,234.375,-43.457,22.461,-160.156
1867.212,-660.156,-28.32,-37.109,7.812,-24.414
1867.215,-394.043,-18.555,-40.527,39.062,59.57
1867.217,17.578,202.637,-46.387,62.5,42.969
1867.221,-147.461,212.891,-43.945,42.48,-39.062
1867.225,-574.707,-200.684,-53.223,29.297,250.977
1867.229,-472.656,-227.539,-57.129,9.766,324.707
1867.233,-27.344,170.41,-47.363,13.672,-124.512
1867.237,-41.016,117.676,-44.922,35.645,-52.734
1867.24,-440.43,-230.957,-58.105,37.598,241.211
1867.244,-486.328,-261.719,-60.547,6.348,158.203
1867.248,-29.785,210.449,-44.434,9.277,-225.098
1867.252,115.723,202.637,-39.062,49.316,-289.062
1867.256,-274.414,30.273,-34.668,37.109,-184.57
1867.26,-445.801,71.289,-35.156,22.461,-160.645
1867.265,-82.52,144.043,-45.41,18.555,-193.359
1867.269,202.637,78.125,-52.246,22.461,-69.336
1867.273,-88.867,-6.348,-46.387,4.883,101.074
1867.277,-395.02,88.867,-45.898,-24.414,6.348
1867.281,-192.383,135.742,-53.223,-19.043,-104.98
1867.285,191.406,-13.184,-56.152,4.395,29.785
1867.289,82.031,-132.324,-55.176,14.648,182.129
1867.292,-320.312,30.762,-51.27,16.113,-77.637
1867.296,-254.883,160.156,-50.293,24.414,-252.441
1867.3,162.598,40.527,-49.316,36.621,-16.113
1867.304,216.309,-13.672,-48.828,54.688,129.395
1867.308,-196.289,86.426,-56.152,31.25,-97.168
1867.322,-336.914,95.703,-53.223,30.273,-119.141
1867.326,59.57,82.52,-47.363,62.988,-3.418
1867.33,269.531,29.297,-54.199,47.363,-3.906
1867.334,-73.73,-32.715,-55.176,33.203,-0.488
1867.338,-318.848,-30.762,-47.852,24.414,-97.656
1867.342,-39.551,-99.121,-46.387,41.992,132.324
1867.346,258.301,-251.465,-64.453,47.363,710.449
1867.35,29.297,5.859,-55.176,-3.906,351.562
1867.354,-331.543,212.891,-39.062,-41.504,-63.477
1867.357,-168.945,125,-48.828,-4.395,44.434
1867.361,251.953,207.52,-45.898,14.16,-32.227
1867.365,181.641,188.477,-34.668,18.066,-107.91
1867.367,-199.707,-11.719,-51.27,19.043,-102.539
1867.371,-222.656,-26.855,-64.453,12.695,-41.504
1867.375,132.324,155.273,-55.664,43.457,-84.473
1867.379,197.266,183.105,-54.688,34.18,-172.363
1867.383,-210.938,-0.977,-61.523,8.789,-76.172
1867.387,-341.309,-97.656,-54.199,12.207,81.055
1867.391,17.578,54.199,-17.09,40.527,67.871
1867.395,234.375,118.164,-1.953,64.453,45.898
1867.398,-87.402,-52.246,-14.16,69.336,39.551
1867.402,-430.176,-349.609,-21.973,48.34,331.055
1867.406,-173.828,-33.203,-6.348,82.031,134.277
1867.41,231.934,312.5,3.906,79.102,-179.688
1867.412,27.344,80.078,-11.23,31.25,-43.457
1867.416,-348.145,-42.969,-16.113,24.414,-145.02
1867.42,-228.027,-40.527,0.977,8.301,-149.414
1867.424,136.23,27.832,16.602,8.301,-98.633
1867.428,96.68,-106.445,5.859,-6.836,22.949
1867.432,-323.73,-185.547,-3.906,-7.812,206.055
1867.435,-338.379,-23.926,2.93,14.648,44.922
1867.439,105.469,61.523,2.93,38.574,-166.016
1867.443,221.191,-159.18,-5.859,47.852,180.664
1867.447,-178.711,-278.32,-0.977,54.688,363.77
1867.451,-355.469,67.383,24.414,40.527,-111.816
1867.455,-3.906,68.848,32.227,54.688,-185.059
1867.457,257.812,22.949,33.691,80.566,-79.59
1867.461,-30.273,69.336,28.32,44.922,-118.164
1867.465,-330.566,38.086,30.273,43.945,-101.074
1867.469,-96.68,-18.066,32.227,60.059,-22.461
1867.473,305.664,-32.715,26.367,59.57,-53.711
1867.477,151.367,-36.133,38.574,92.773,-116.699
1867.481,-241.699,-78.613,43.457,88.867,-108.398
1867.485,-138.672,-132.324,24.902,63.965,28.32
1867.489,289.062,-95.703,34.668,82.031,309.57
1867.492,329.102,166.504,62.5,72.266,184.57
1867.496,-86.426,64.941,54.688,16.113,-50.293
1867.5,-186.035,-179.688,36.621,11.23,60.547
1867.502,212.402,-9.766,35.156,35.645,57.617
1867.506,378.906,178.711,47.852,31.738,-149.414
1867.51,49.316,-15.137,41.504,32.715,-143.555
1867.514,-196.289,-237.793,20.996,47.363,87.891
1867.518,78.613,-64.941,28.32,50.293,45.41
1867.522,386.719,160.156,50.293,73.242,-79.102
1867.526,121.582,62.5,48.34,40.039,-60.547
1867.53,-247.559,-183.105,41.992,0.488,148.926
1867.534,-32.227,-48.34,58.105,34.18,260.742
1867.538,395.02,339.844,57.617,55.176,-96.68
1867.541,266.113,202.637,39.062,56.641,-159.18
1867.545,-169.434,24.902,38.086,60.059,-133.789
1867.549,-170.898,43.457,42.969,73.73,-114.746
1867.553,236.328,225.098,55.176,69.336,-94.727
1867.557,289.062,140.137,44.434,105.469,-89.844
1867.561,-108.887,-71.289,24.902,118.652,17.09
1867.565,-225.098,15.137,32.227,29.785,-148.438
1867.569,182.129,66.895,31.738,-19.043,-230.957
1867.573,400.391,-12.695,20.02,0.977,19.043
1867.577,24.902,-166.992,28.32,-0.977,247.07
1867.581,-247.559,29.297,43.457,-29.297,11.719
1867.584,43.457,157.227,34.18,-14.648,-249.512
1867.588,373.047,95.703,32.227,7.812,-120.605
1867.592,105.469,109.863,43.457,42.969,35.645
1867.593,-304.199,83.008,37.109,34.18,-68.848
1867.597,-162.109,51.27,24.414,17.578,-196.289
1867.601,247.559,24.902,17.578,57.617,-20.996
1867.605,169.922,30.273,17.09,40.527,141.113
1867.609,-263.672,19.043,16.113,15.625,-28.32
1867.613,-264.16,32.715,26.855,47.363,-119.141
1867.617,143.555,-57.617,17.09,79.102,233.398
1867.621,223.145,-174.316,-8.789,82.031,606.445
1867.625,-173.34,127.93,3.906,35.645,241.699
1867.628,-325.684,202.637,19.531,-1.465,-61.035
1867.632,77.148,129.883,17.578,37.598,25.879
1867.636,319.336,219.238,4.883,31.25,-11.719
1867.639,-14.648,169.922,-1.465,6.836,-78.125
1867.643,-318.848,-7.812,-1.465,4.883,-107.91
1867.647,-75.684,-23.438,3.906,20.996,-135.254
1867.651,296.875,163.086,6.836,37.598,-144.043
1867.654,110.84,96.191,5.371,32.715,-110.352
1867.658,-304.199,-121.582,-0.488,35.645,21.973
1867.662,-187.5,-213.379,-6.348,44.922,334.473
1867.666,232.422,125,0.977,43.945,197.754
1867.67,189.941,309.082,-8.301,28.809,-145.996
1867.674,-216.309,-49.316,-22.461,1.465,-15.137
1867.678,-268.066,-97.168,-21.484,-12.695,39.062
1867.682,130.859,203.125,-8.789,20.996,-142.09
1867.697,265.137,176.27,-7.812,40.527,-202.148
1867.701,-100.098,18.066,-20.996,14.648,-58.594
1867.705,-292.48,-79.59,-40.039,7.324,-3.906
1867.709,45.898,61.523,-37.109,16.113,-62.5
1867.713,326.172,217.773,-23.926,19.043,-160.156
1867.716,25.879,-133.301,-32.227,15.137,107.422
1867.72,-317.383,-252.441,-37.109,12.695,456.055
1867.724,-73.73,106.445,-19.531,24.414,85.938
1867.728,306.641,216.797,-7.324,27.344,-196.289
1867.732,133.789,-25.879,-18.066,17.09,5.859
1867.736,-248.535,-68.848,-5.371,13.672,39.551
1867.74,-162.109,154.297,10.742,30.273,-250
1867.742,248.535,161.621,2.441,52.734,-278.32
1867.746,270.508,121.582,0.977,23.438,-192.383
1867.75,-149.414,140.137,10.254,-19.531,-134.277
1867.754,-258.789,122.559,3.906,2.93,-123.047
1867.758,139.648,81.543,0.977,28.809,-26.367
1867.762,321.777,29.297,5.371,21.973,47.852
1867.766,-53.711,9.277,-3.418,21.484,-14.16
1867.769,-296.875,72.266,-1.953,4.883,-191.895
1867.773,31.25,10.742,1.953,26.367,-184.082
1867.777,333.984,-212.891,0.977,83.984,331.543
1867.781,88.867,25.391,15.137,63.477,161.133
1867.785,-259.277,169.922,19.531,19.531,-299.805
1867.787,-87.891,30.273,14.16,18.555,-228.027
1867.791,302.246,162.109,22.949,39.551,-140.625
1867.795,208.496,157.227,21.484,28.809,-88.867
1867.799,-188.477,22.949,13.184,0.488,-71.289
1867.803,-187.012,-85.938,16.113,15.137,109.863
1867.807,210.938,-13.672,10.742,35.645,221.68
1867.81,287.598,179.199,20.02,38.086,43.457
1867.814,-119.141,169.434,29.297,35.645,-77.637
1867.818,-264.648,-87.402,14.16,32.227,238.281
1867.822,108.887,9.277,11.23,35.645,368.652
1867.826,345.215,362.793,13.672,45.41,-24.902
1867.83,-16.602,139.16,20.02,47.363,30.762
1867.832,-312.012,-1.465,30.762,38.086,121.582
1867.836,-19.531,202.148,32.227,53.223,-14.16
1867.84,311.035,283.691,42.48,89.844,-160.156
1867.843,87.402,122.07,45.898,84.473,-76.66
1867.847,-290.527,22.949,36.133,40.527,30.273
1867.851,-137.207,36.133,20.02,9.766,-64.941
1867.855,267.578,102.539,18.066,22.461,-120.605
1867.859,198.242,30.762,22.949,28.32,46.387
1867.863,-212.891,-175.293,12.695,2.441,229.492
1867.867,-204.59,77.637,22.949,2.93,-47.852
1867.871,208.008,267.09,34.668,32.715,-232.91
1867.875,295.41,137.695,28.32,29.785,-109.863
1867.878,-99.609,63.477,28.809,-7.324,-146.973
1867.882,-277.832,31.25,34.668,7.324,-177.246
1867.886,73.242,102.539,39.551,37.598,-102.539
1867.89,300.293,-2.93,24.902,41.504,141.113
1867.894,-12.695,-93.262,8.301,37.598,231.934
1867.898,-297.363,60.059,1.465,21.484,-77.148
1867.901,-56.152,153.32,6.348,26.367,-83.496
1867.905,290.039,14.648,16.602,58.105,219.238
1867.909,125.977,-2.93,23.926,57.129,225.098
1867.913,-249.512,263.672,34.18,7.324,-103.516
1867.917,-156.25,147.461,25.391,14.648,-179.688
1867.921,260.254,143.066,12.207,47.363,-133.301
1867.923,241.211,217.285,7.324,41.504,-132.324
1867.927,-159.18,138.672,-9.277,16.602,-184.082
1867.931,-237.305,20.02,-25.879,-6.348,-150.391
1867.935,157.715,45.41,-19.043,10.742,-17.09
1867.939,323.73,133.789,-9.766,19.531,-54.199
1867.943,-57.129,64.941,-18.066,16.602,-29.785
1867.947,-273.438,-12.207,-28.809,16.113,165.039
1867.95,46.387,-177.246,-26.855,22.461,465.332
1867.954,336.426,115.234,-22.949,13.184,319.336
1867.958,71.289,365.234,-25.391,-9.766,-60.059
1867.962,-286.621,91.797,-25.879,1.465,-53.223
1867.966,-97.168,125.488,-21.484,14.648,-74.707
1867.967,273.438,287.109,-28.32,45.898,-135.742
1867.971,154.785,242.676,-45.41,43.945,-129.395
1867.975,-231.445,4.883,-54.199,20.508,-33.203
1867.979,-183.594,41.504,-44.434,23.438,-54.688
1867.983,224.121,259.277,-45.41,47.363,-161.621
1867.987,236.328,211.426,-66.895,30.762,-180.664
1867.991,-178.223,-65.918,-68.359,12.207,154.785
1867.995,-299.316,-151.367,-50.293,20.02,538.574
1867.999,78.125,349.121,-37.109,4.883,102.051
1868.003,293.457,428.711,-45.41,0,-202.148
1868.006,-52.246,183.105,-61.035,14.648,-128.418
1868.01,-297.363,215.82,-60.059,6.348,-206.055
1868.014,6.836,360.352,-46.387,16.602,-145.02
1868.018,308.594,304.199,-51.758,38.574,-92.285
1868.022,69.824,140.625,-61.035,14.16,-156.25
1868.025,-278.809,170.41,-53.711,0.488,-178.711
1868.029,-118.164,265.137,-50.781,0.977,-158.691
1868.033,250,153.32,-66.406,16.113,24.414
1868.037,146.973,7.324,-82.52,28.32,176.758
1868.041,-228.027,186.523,-72.754,2.441,-41.016
1868.045,-236.816,257.812,-64.453,3.418,-139.648
1868.049,149.902,146.973,-66.406,33.691,66.895
1868.053,242.676,157.227,-65.918,78.125,252.441
1868.057,-137.207,335.449,-56.641,58.105,-7.812
1868.072,-296.387,322.754,-54.199,11.719,-103.516
1868.076,63.965,252.441,-54.199,28.32,-63.965
1868.08,298.828,265.137,-53.711,38.086,29.297
1868.084,-34.668,273.926,-54.688,32.715,-29.785
1868.088,-316.895,271.484,-44.434,26.367,-270.508
1868.092,-51.27,52.734,-59.082,42.48,46.387
1868.096,289.551,78.125,-75.684,59.082,341.797
1868.1,104.004,394.531,-68.359,29.785,-52.246
1868.103,-278.809,323.73,-66.895,4.395,-267.578
1868.107,-149.414,154.785,-55.176,10.254,6.348
1868.111,268.555,272.949,-37.598,22.461,65.918
1868.115,222.656,437.5,-35.156,23.438,-183.105
1868.105,-212.402,295.41,-46.387,11.23,-193.848
1868.109,-254.883,178.223,-41.504,8.301,-44.434
1868.113,154.785,380.859,-31.738,21.484,-68.848
1868.117,252.93,468.262,-31.738,28.809,-120.605
1868.121,-150.391,236.816,-45.41,16.113,-82.031
1868.125,-333.984,77.148,-58.594,16.602,-82.52
1868.129,24.414,213.867,-45.898,35.645,-101.074
1868.133,295.898,418.945,-37.109,26.855,-132.324
1868.137,17.578,230.957,-49.316,5.859,-38.086
1868.14,-331.543,-8.301,-54.199,21.973,240.723
1868.144,-91.797,320.801,-44.922,44.434,84.961
1868.148,288.086,438.477,-49.805,50.781,-72.754
1868.162,109.375,250.977,-62.5,18.555,33.203
1868.166,-269.531,208.984,-71.777,-1.953,29.785
1868.17,-183.105,274.902,-76.66,32.715,26.367
1868.174,242.676,352.539,-67.871,51.758,6.348
1868.178,221.191,161.621,-76.66,25.879,195.312
1868.182,-204.59,-34.668,-81.543,18.555,352.051
1868.186,-252.93,259.277,-61.523,4.883,83.984
1868.189,145.508,431.641,-56.152,-11.23,-117.188
1868.193,305.664,229.492,-63.965,26.855,154.785
1868.197,-92.285,150.879,-71.777,24.414,184.57
1868.201,-324.219,323.242,-65.43,-9.766,-245.605
1868.205,24.414,279.785,-53.711,17.09,-222.656
1868.207,317.871,286.133,-42.969,45.898,-113.281
1868.211,48.828,333.984,-38.086,30.762,-45.41
1868.215,-300.293,203.613,-39.062,5.859,-55.176
1868.219,-111.816,104.492,-44.434,20.508,-36.621
1868.223,269.531,217.773,-51.758,40.527,103.516
1868.226,146.484,287.598,-59.57,18.555,46.875
1868.23,-258.789,198.73,-56.152,5.371,-79.59
1868.234,-208.008,132.812,-50.293,11.719,6.836
1868.238,224.609,176.758,-55.176,30.273,324.219
1868.242,250.977,435.547,-45.898,30.762,109.375
1868.246,-173.34,410.156,-50.293,12.207,-171.387
1868.25,-270.508,176.27,-62.012,3.418,-104.492
1868.252,94.238,284.18,-58.594,46.875,-99.121
1868.256,293.457,412.598,-72.754,49.805,-132.812
1868.26,-48.34,209.961,-87.402,7.812,-152.832
1868.264,-300.293,-34.668,-77.148,17.578,49.316
1868.268,11.23,125,-64.941,26.855,93.262
1868.272,333.984,348.145,-68.359,12.207,-64.941
1868.276,103.027,250,-69.824,-16.602,-166.504
1868.279,-262.695,-22.461,-63.965,-15.625,91.309
1868.283,-117.188,-6.348,-59.57,17.578,251.465
1868.287,276.855,477.051,-49.316,13.184,-110.84
1868.291,208.008,421.875,-56.641,-4.883,-166.992
1868.295,-230.957,188.477,-54.688,-0.488,-101.562
1868.298,-223.145,254.883,-58.594,1.465,-119.141
1868.302,225.586,348.145,-77.637,17.09,-133.789
1868.306,289.551,219.238,-63.477,18.066,-145.996
1868.31,-111.328,153.32,-45.898,6.836,-42.48
1868.314,-260.742,190.43,-44.434,21.484,-61.035
1868.318,105.469,189.453,-32.715,37.598,-29.297
1868.322,317.871,162.109,-42.969,32.715,82.52
1868.325,-19.531,-149.414,-67.383,13.184,418.945
1868.329,-275.879,43.457,-47.363,11.719,284.18
1868.333,10.742,430.664,-33.203,20.02,-134.766
1868.337,345.215,321.289,-48.34,10.254,-41.504
1868.341,145.02,257.812,-60.547,-5.859,-4.883
1868.342,-230.469,245.605,-68.848,-18.555,-106.445
1868.346,-122.559,243.652,-62.5,6.836,-135.254
1868.35,287.109,193.848,-60.547,27.832,10.742
1868.354,242.188,221.68,-67.383,19.043,52.734
1868.358,-177.734,235.84,-70.312,4.395,-46.875
1868.362,-205.078,145.02,-75.195,-1.465,-113.77
1868.366,188.477,10.742,-72.266,36.133,190.43
1868.37,287.109,20.02,-69.824,25.879,428.223
1868.374,-100.098,284.18,-67.383,-27.344,-48.828
1868.378,-292.48,191.406,-63.965,-13.672,-146.973
1868.381,42.48,122.07,-67.871,20.996,31.738
1868.385,318.848,295.898,-76.172,24.902,-99.121
1868.389,23.926,296.387,-83.008,28.809,-158.203
1868.393,-303.711,85.449,-104.492,12.695,-106.934
1868.397,-66.406,72.266,-94.727,17.09,-110.352
1868.4,306.641,271.973,-73.73,31.25,-153.32
1868.404,140.625,279.785,-90.82,-10.254,-147.949
1868.408,-265.625,14.648,-98.145,-35.645,50.781
1868.412,-166.504,-82.52,-91.797,-17.578,285.645
1868.416,258.789,292.969,-68.848,0.488,131.348
1868.42,229.004,424.805,-68.848,3.906,-33.203
1868.424,-199.707,58.594,-98.145,-10.742,53.223
1868.428,-259.277,10.254,-108.887,-27.344,116.211
1868.432,149.414,235.352,-96.191,-2.441,-40.039
1868.433,288.086,254.883,-89.844,12.207,-93.262
1868.437,-89.355,64.941,-100.098,20.02,61.035
1868.441,-314.941,-60.547,-91.309,15.625,178.223
1868.445,11.23,201.66,-79.59,10.254,-1.465
1868.449,287.109,334.961,-83.008,19.043,-117.676
1868.453,8.301,-1.953,-93.75,17.578,277.832
1868.457,-307.617,-200.195,-102.539,26.367,495.605
1868.461,-101.074,242.188,-82.52,27.344,-37.598
1868.464,271.973,350.098,-74.219,32.715,-271.484
1868.468,135.742,207.52,-83.496,42.969,-149.902
1868.472,-252.93,220.703,-88.379,12.207,-138.184
1868.476,-208.496,255.371,-83.984,-5.371,-201.66
1868.48,177.734,270.508,-86.914,16.602,-119.629
1868.484,224.609,186.035,-93.75,9.277,-22.949
1868.488,-145.996,195.801,-86.914,-0.977,25.879
1868.492,-255.859,290.527,-75.684,15.137,-63.965
1868.496,109.375,231.934,-76.66,36.133,-73.73
1868.5,261.719,48.828,-93.75,43.945,239.258
1868.504,-62.988,119.141,-90.332,16.113,151.855
1868.507,-307.617,290.527,-86.914,-10.742,-163.574
1868.511,-21.484,162.598,-96.68,15.137,-99.609
1868.515,320.801,113.281,-86.914,49.316,41.504
1868.519,92.773,306.641,-69.824,18.066,-181.641
1868.523,-302.246,198.73,-80.078,-31.25,-327.148
1868.537,-146.484,160.156,-70.312,-32.715,-141.602
1868.541,263.672,294.922,-51.758,14.16,-37.109
1868.545,191.895,218.262,-50.293,25.391,-84.473
1868.549,-223.145,87.402,-52.734,-3.906,-156.25
1868.553,-231.445,-45.41,-61.523,3.418,33.203
1868.557,171.387,-50.781,-58.105,28.809,417.969
1868.56,252.93,317.871,-48.828,30.273,196.289
1868.564,-121.582,333.984,-58.594,-3.906,-132.812
1868.568,-270.02,36.621,-78.613,-16.113,3.906
1868.572,94.238,225.098,-67.383,25.879,37.109
1868.576,327.637,447.754,-48.34,34.18,-84.473
1868.58,10.742,187.5,-58.105,-1.953,-56.641
1868.582,-263.184,81.055,-64.453,-15.625,-170.41
1868.586,4.395,250.977,-55.664,19.043,-190.43
1868.59,341.797,375.977,-37.109,43.945,-137.695
1868.594,139.648,219.727,-32.715,23.438,-110.352
1868.598,-243.652,73.73,-34.668,26.367,-86.914
1868.602,-118.652,102.051,-40.039,34.18,-81.543
1868.606,281.25,189.941,-43.945,23.926,-112.305
1868.61,232.91,154.297,-36.621,8.301,4.395
1868.614,-181.152,-172.852,-41.992,14.648,390.625
1868.617,-239.746,65.918,-46.875,15.625,210.938
1868.621,170.41,452.637,-31.738,1.465,-53.711
1868.625,302.734,259.766,-21.973,14.648,12.695
1868.627,-76.66,128.906,-26.855,1.465,-108.887
1868.631,-257.812,141.113,-34.668,-15.625,-214.355
1868.635,61.523,114.746,-31.25,9.277,-228.027
1868.639,302.246,-16.113,-41.016,33.691,20.996
1868.643,36.133,25.391,-55.664,24.414,150.879
1868.647,-289.062,99.609,-49.805,-1.953,-3.418
1868.651,-84.473,113.281,-48.34,12.695,-73.242
1868.655,288.086,21.484,-56.152,59.082,165.039
1868.659,134.277,-75.684,-55.176,35.645,269.043
1868.662,-251.465,166.016,-47.363,-0.977,-118.652
1868.666,-191.895,181.152,-51.27,15.625,-209.961
1868.67,214.844,125,-56.152,28.32,-69.336
1868.673,235.352,199.219,-49.316,27.832,-109.375
1868.676,-178.711,174.316,-50.293,29.785,-224.121
1868.68,-283.691,25.391,-70.801,18.555,-186.523
1868.684,104.492,83.496,-69.824,12.695,-118.164
1868.688,273.926,191.406,-50.781,37.109,-121.094
1868.692,-85.938,21.484,-52.734,20.02,-194.824
1868.696,-299.316,-119.629,-58.105,5.371,-82.031
1868.7,14.648,-131.348,-63.477,17.578,249.023
1868.704,310.547,201.66,-55.664,27.832,102.539
1868.708,61.035,234.375,-55.176,6.348,-221.68
1868.712,-301.758,-70.801,-71.289,-11.719,-203.613
1868.716,-116.211,9.766,-73.242,9.766,-99.609
1868.717,288.574,243.652,-70.801,11.23,-70.312
1868.721,175.781,210.938,-63.965,1.953,-201.172
1868.725,-237.305,-172.363,-54.688,2.441,81.543
1868.729,-217.285,-193.359,-43.945,14.16,259.766
1868.733,199.219,230.957,-33.691,26.367,-56.152
1868.737,234.375,189.453,-41.016,39.551,-52.734
1868.741,-156.738,-143.066,-53.223,39.551,250.488
1868.745,-263.672,-170.41,-58.105,13.672,363.281
1868.749,134.277,271.973,-51.27,17.09,-40.039
1868.752,321.289,259.766,-54.688,37.598,-151.367
1868.756,-33.203,59.57,-62.988,21.973,-99.121
1868.76,-292.969,88.379,-53.711,17.09,-123.535
1868.765,-10.742,165.527,-46.875,16.602,-89.844
1868.769,336.426,98.145,-51.27,14.16,58.594
1868.773,115.723,-4.883,-53.223,11.23,63.965
1868.777,-265.137,104.004,-43.945,-4.395,-46.875
1868.781,-99.609,159.668,-42.969,11.23,-128.418
1868.785,283.203,33.691,-50.781,36.621,-26.855
1868.789,178.711,-63.965,-54.199,20.02,177.246
1868.792,-199.707,17.09,-52.246,6.348,0.488
1868.796,-206.543,142.09,-46.387,1.465,-259.277
1868.8,161.621,3.418,-57.129,15.137,-118.652
1868.804,240.234,-47.363,-62.988,44.922,90.332
1868.808,-125,179.688,-48.34,13.672,-37.109
1868.823,-271.484,129.883,-40.527,-13.672,-101.562
1868.826,72.266,31.25,-49.805,29.297,-88.379
1868.83,282.715,51.758,-47.852,33.691,17.578
1868.834,-27.344,33.203,-36.621,0.488,75.684
1868.838,-306.641,-19.043,-40.039,-7.812,-60.547
1868.842,-55.664,-104.98,-43.945,-9.277,47.852
1868.846,291.504,-222.168,-48.34,4.395,544.434
1868.85,110.84,46.387,-36.621,-2.93,273.438
1868.854,-263.672,197.266,-41.992,-23.438,-241.211
1868.858,-158.691,117.676,-55.664,-6.836,-144.531
1868.862,252.93,229.004,-44.922,19.531,-151.367
1868.865,225.098,237.793,-43.945,38.086,-199.707
1868.867,-192.383,59.082,-57.617,36.621,-107.91
1868.871,-247.07,0.488,-63.965,20.02,-59.082
1868.875,143.555,177.246,-55.176,19.531,-58.105
1868.879,279.297,230.957,-43.457,32.715,-45.898
1868.883,-82.52,9.277,-53.711,29.785,-47.363
1868.886,-272.949,-144.531,-58.594,10.254,-36.621
1868.89,54.688,0.488,-53.223,11.719,-30.762
1868.894,323.242,108.398,-56.152,28.32,-48.34
1868.898,37.598,16.602,-62.988,24.414,21.484
1868.902,-306.152,-270.508,-65.43,-1.465,417.969
1868.906,-81.055,7.324,-54.688,-5.371,237.305
1868.91,299.805,349.121,-42.48,18.555,-165.039
1868.912,149.902,140.625,-39.551,28.32,-79.102
1868.916,-239.746,57.129,-47.852,17.578,-85.938
1868.92,-180.664,48.34,-54.199,16.602,-92.773
1868.924,212.402,136.23,-58.594,28.32,-82.031
1868.928,235.352,42.969,-59.57,62.012,131.348
1868.932,-163.086,-75.684,-60.059,33.203,240.723
1868.936,-258.301,111.328,-65.918,-18.066,48.828
1868.94,102.539,216.797,-48.828,15.625,-5.371
1868.943,272.461,1.465,-49.805,36.133,267.578
1868.947,-71.289,-95.215,-61.035,15.625,429.199
1868.951,-325.195,177.734,-51.758,-14.648,-102.051
1868.955,-28.32,168.945,-50.781,-5.371,-288.086
1868.957,287.598,169.434,-49.805,11.23,-94.727
1868.961,51.758,184.082,-47.852,4.883,-165.039
1868.965,-281.25,98.145,-51.27,-10.254,-246.582
1868.969,-134.277,61.035,-57.129,-6.348,-117.188
1868.973,224.121,66.895,-56.152,17.09,-86.426
1868.977,135.742,40.039,-52.246,32.715,-136.23
1868.981,-266.113,9.277,-59.57,2.441,-91.309
1868.985,-231.445,-52.734,-67.383,-11.23,28.809
1868.988,152.344,-88.867,-63.965,19.531,250.977
1868.992,189.941,141.113,-60.547,32.227,115.234
1868.996,-146.973,102.051,-63.965,9.766,-165.527
1869,-294.434,-150.879,-70.312,-19.043,-126.465
1869.002,47.363,13.184,-63.477,-3.418,-33.203
1869.006,292.48,246.094,-50.781,14.648,-136.719
1869.01,-31.738,42.969,-58.594,-5.371,-147.461
1869.014,-338.867,-212.891,-74.219,-13.184,19.043
1869.018,-58.105,-68.359,-72.754,6.836,77.148
1869.022,289.062,170.898,-55.176,13.672,32.227
1869.026,76.66,60.547,-50.293,0,-29.785
1869.029,-291.016,-202.637,-64.941,-23.438,87.402
1869.033,-164.551,-96.191,-59.57,-1.465,197.266
1869.037,252.441,300.781,-40.527,31.738,-124.023
1869.041,208.496,185.059,-40.527,10.254,-184.57
1869.045,-200.684,-27.344,-50.781,-12.695,-112.793
1869.049,-233.398,-14.648,-53.711,8.301,-101.074
1869.053,176.27,184.57,-45.41,32.715,-146.973
1869.057,286.133,125,-46.875,47.852,-155.273
1869.061,-109.375,-50.293,-43.945,41.016,-0.488
1869.065,-279.785,41.016,-46.875,16.602,-26.855
1869.069,64.941,67.871,-50.781,37.109,-132.812
1869.073,296.875,23.926,-36.621,47.363,48.828
1869.077,-4.395,-121.094,-40.527,18.066,309.082
1869.081,-298.828,37.598,-43.457,-14.16,64.941
1869.085,-78.125,211.426,-36.621,-16.602,-196.289
1869.089,276.855,130.859,-31.738,-20.02,-118.164
1869.092,120.605,108.887,-36.621,-37.109,-58.105
1869.093,-252.93,119.629,-39.062,-17.09,-65.918
1869.097,-166.016,87.402,-30.762,5.371,-102.051
1869.101,232.422,55.176,-39.551,26.855,47.363
1869.105,218.262,58.105,-42.969,34.668,138.184
1869.109,-173.34,58.594,-26.367,11.23,-18.066
1869.113,-244.141,31.738,-19.531,8.789,-102.539
1869.117,118.652,-95.215,-29.785,25.879,179.199
1869.12,274.902,-211.426,-32.227,29.297,545.898
1869.124,-69.336,74.219,-22.949,4.883,144.531
1869.128,-288.574,191.895,-31.738,3.418,-220.703
1869.132,15.625,141.113,-38.086,25.879,-66.895
1869.136,301.758,249.023,-39.062,25.879,-26.855
1869.139,41.504,206.543,-46.875,7.324,-96.68
1869.143,-275.879,39.062,-42.48,2.93,-75.684
1869.147,-69.336,13.672,-34.668,15.137,-79.102
1869.15,288.086,193.359,-23.438,17.09,-80.566
1869.154,143.066,164.062,-18.066,21.973,-26.855
1869.158,-248.535,-81.543,-34.668,9.766,7.812
1869.162,-204.59,-253.418,-49.316,16.113,196.777
1869.166,192.871,90.82,-41.504,11.719,90.332
1869.17,205.566,324.707,-26.855,-5.371,-245.605
1869.174,-198.73,9.277,-32.715,-0.977,-99.121
1869.178,-292.969,-51.27,-37.109,0.488,59.57
1869.182,105.469,214.355,-18.555,13.184,-149.414
1869.197,281.25,215.332,-12.207,43.945,-180.176
1869.201,-46.875,49.316,-25.879,23.438,-74.707
1869.205,-281.738,-30.762,-33.203,4.395,-16.602
1869.209,-0.977,81.543,-31.25,16.113,-89.355
1869.213,305.664,232.422,-27.344,17.09,-229.004
1869.217,62.988,-73.242,-41.992,27.832,130.859
1869.221,-285.645,-277.344,-49.805,26.855,494.629
1869.225,-112.793,88.379,-38.574,19.531,146.973
1869.229,270.508,220.215,-30.273,24.902,-102.051
1869.232,185.547,67.383,-21.973,25.879,56.152
1869.236,-215.332,73.242,-7.324,10.254,36.621
1869.24,-225.586,207.031,-16.602,-5.859,-202.637
1869.242,192.383,182.129,-30.762,9.277,-225.098
1869.246,270.508,159.18,-10.742,18.066,-139.648
1869.25,-125.488,164.062,-7.812,1.953,-104.98
1869.254,-305.176,119.141,-8.301,-10.254,-198.242
1869.258,45.898,106.445,3.418,18.555,-148.926
1869.262,286.133,67.871,-0.977,17.09,-70.312
1869.265,-30.273,82.031,0.977,-6.836,-20.02
1869.269,-293.457,158.691,1.953,-13.184,-93.262
1869.273,-36.133,84.961,-11.719,-8.301,-160.645
1869.277,268.555,-145.996,-14.648,23.438,323.73
1869.281,84.473,101.562,-9.766,26.855,213.379
1869.285,-259.277,283.203,-8.789,0,-248.535
1869.287,-147.461,143.066,-8.301,20.996,-119.141
1869.291,250.977,261.23,-7.812,35.156,-2.93
1869.295,203.613,233.398,-6.836,13.672,22.461
1869.299,-205.078,132.324,-7.812,13.184,-88.379
1869.303,-238.77,3.906,-10.254,28.809,6.348
1869.307,150.391,43.457,-2.441,35.156,187.988
1869.31,250,266.602,5.859,10.254,64.453
1869.314,-121.094,266.602,0.488,-13.184,-55.176
1869.318,-292.48,-19.043,-15.625,-13.184,137.207
1869.322,50.293,36.621,-6.836,16.113,216.309
1869.326,310.547,430.176,8.789,22.949,-92.773
1869.33,21.484,213.867,-2.93,-0.488,-113.281
1869.332,-282.715,66.406,-8.789,-19.531,-125.488
1869.336,-46.875,294.434,-7.324,-14.16,-173.34
1869.34,291.504,441.895,-5.371,7.324,-169.922
1869.344,153.32,259.766,-16.602,28.32,-164.551
1869.348,-239.746,119.141,-19.531,4.883,-155.273
1869.352,-198.242,176.758,-5.859,-20.996,-112.793
1869.356,205.566,296.387,-9.766,19.531,-109.375
1869.36,205.566,235.84,-20.996,32.227,-16.602
1869.363,-194.336,24.414,-5.859,18.555,187.988
1869.367,-266.602,340.332,17.09,14.648,94.727
1869.371,146.484,550.293,8.789,10.254,-95.703
1869.375,294.434,385.742,-3.906,28.809,-116.211
1869.378,-48.828,346.68,-12.695,24.902,-100.098
1869.382,-265.137,327.637,-17.578,8.301,-115.234
1869.386,18.555,385.742,-20.508,26.855,-153.32
1869.39,298.828,305.176,-28.32,46.875,52.734
1869.394,40.527,238.281,-29.785,27.344,282.227
1869.398,-295.898,396.973,-23.926,-14.16,121.582
1869.402,-94.727,450.684,-21.484,-4.395,-121.582
1869.405,281.738,341.309,-17.09,39.062,106.445
1869.409,145.996,363.281,-20.508,20.508,320.801
1869.413,-240.723,584.473,-24.414,-2.441,-20.508
1869.417,-205.566,438.965,-29.297,8.789,-149.414
1869.421,199.707,440.43,-25.391,15.137,-86.426
1869.423,233.398,533.203,-33.203,5.859,-84.961
1869.427,-155.273,428.223,-37.109,-25.391,-189.941
1869.431,-251.465,297.852,-25.879,-24.902,-230.469
1869.435,105.957,336.426,-27.344,21.973,-76.66
1869.439,295.898,508.301,-22.461,39.062,37.109
1869.443,-29.297,430.664,-35.156,23.926,-35.156
1869.447,-283.691,340.82,-42.969,3.906,-54.688
1869.451,-21.484,257.812,-35.645,22.949,339.355
1869.454,297.363,569.824,-24.414,24.414,293.945
1869.458,92.773,838.867,-24.414,8.301,-184.082
1869.462,-261.23,589.844,-26.367,5.859,-131.348
1869.466,-106.445,599.609,-12.695,13.672,-78.125
1869.467,276.367,755.859,-7.812,42.969,-173.34
1869.471,194.336,742.676,-1.465,30.273,-147.949
1869.475,-207.52,473.633,-6.348,5.859,-42.48
1869.479,-213.867,492.188,-5.859,5.859,-50.781
1869.483,188.477,771.484,3.418,13.184,-2.93
1869.487,270.508,733.887,4.395,17.09,-1.465
1869.49,-120.605,425.781,-2.441,19.043,184.57
1869.494,-261.719,263.184,-4.395,-5.371,483.398
1869.498,107.91,741.699,11.23,-17.09,92.285
1869.502,313.965,873.535,7.324,12.695,-128.906
1869.506,-16.602,630.859,-7.324,16.602,-27.832
1869.51,-291.016,625,0.977,-7.324,-84.473
1869.514,-27.832,659.18,14.16,0.977,-196.777
1869.518,315.43,606.445,16.602,25.879,-170.898
1869.522,125,473.633,5.371,12.695,-106.934
1869.526,-233.887,461.426,8.301,-18.555,-134.277
1869.53,-126.953,506.348,26.855,-1.465,-126.953
1869.533,251.953,379.883,23.438,35.645,-17.09
1869.537,218.75,262.207,12.207,32.227,321.289
1869.541,-177.734,325.195,1.953,11.23,164.062
1869.545,-221.191,356.934,3.418,12.207,-141.113
1869.549,179.688,276.855,-6.836,27.832,-17.09
1869.553,293.945,201.66,-21.484,45.898,52.246
1869.557,-86.914,317.383,-2.93,16.602,-152.832
1869.572,-274.902,221.68,9.277,-7.324,-285.156
1869.576,60.547,154.297,4.395,24.902,-312.012
1869.58,315.43,222.656,-2.441,31.738,-118.652
1869.584,32.715,221.68,-5.859,15.137,-11.719
1869.588,-280.273,182.129,-11.23,-2.441,-173.828
1869.592,-72.754,-47.363,-16.602,4.883,91.797
1869.595,296.387,-74.219,-16.602,10.742,370.117
1869.599,161.621,284.18,-7.324,-9.766,21.973
1869.603,-228.027,217.285,-18.066,20.02,-190.918
1869.607,-153.32,-7.324,-33.691,35.645,-107.422
1869.611,239.746,134.277,-24.414,16.602,-27.344
1869.615,240.723,302.246,-11.719,9.766,-109.863
1869.617,-159.668,104.98,-16.113,-5.371,-223.145
1869.621,-248.535,-24.902,-21.973,9.766,-52.734
1869.625,154.297,171.387,-4.883,37.109,-34.18
1869.629,332.031,284.668,-1.465,43.945,-136.23
1869.633,-38.086,56.641,-18.555,14.648,-96.191
1869.636,-289.551,-101.562,-15.625,-2.93,3.418
1869.64,39.551,11.23,-2.441,17.09,79.102
1869.644,352.051,169.922,-4.395,19.043,-45.898
1869.648,83.008,39.062,-19.043,21.484,-64.453
1869.652,-267.09,-267.09,-31.25,9.766,139.648
1869.656,-72.266,55.664,-20.02,-13.672,-39.062
1869.66,322.754,278.32,7.324,26.855,-134.766
1869.662,204.59,17.09,1.465,32.227,87.402
1869.666,-212.402,-71.289,-5.371,-5.859,9.766
1869.67,-183.594,-23.438,4.395,-7.812,-55.664
1869.674,224.121,82.52,15.625,14.648,-75.195
1869.678,243.652,-57.617,16.113,34.18,80.566
1869.682,-136.719,-246.582,3.418,39.062,337.402
1869.686,-222.168,-53.711,11.719,3.906,-1.953
1869.69,119.629,125,25.391,3.906,-266.113
1869.693,294.922,-50.781,21.973,29.297,106.445
1869.697,-20.02,-134.766,22.461,19.043,317.871
1869.701,-272.949,139.648,38.086,9.766,-91.309
1869.705,-6.348,94.727,32.715,37.598,-141.602
1869.708,318.848,99.121,22.949,68.359,-2.93
1869.712,77.148,134.766,21.484,56.641,-18.066
1869.716,-290.527,16.602,11.719,39.551,21.484
1869.72,-121.094,-56.641,18.066,10.742,77.148
1869.724,273.926,2.93,22.461,1.465,20.02
1869.728,198.242,53.711,0.977,-7.812,13.672
1869.732,-200.684,28.32,-6.836,-41.992,-25.879
1869.735,-207.031,-53.223,5.859,-54.199,-171.387
1869.739,172.363,-56.641,17.578,-10.254,70.312
1869.743,255.859,247.559,38.086,7.812,-41.504
1869.747,-125.977,285.645,30.762,-11.23,-299.805
1869.751,-304.199,77.637,17.578,6.348,-198.73
1869.752,64.453,214.355,33.203,26.367,-133.301
1869.756,289.062,388.672,33.203,46.387,-99.121
1869.76,-29.297,195.801,13.672,29.297,-119.629
1869.764,-306.152,-45.41,10.742,3.906,145.02
1869.768,-68.848,84.961,20.508,20.02,259.766
1869.772,291.016,349.609,25.879,47.363,90.332
1869.776,108.887,308.594,20.996,25.879,-5.371
1869.78,-276.855,20.508,12.207,-5.371,188.477
1869.783,-177.734,17.09,8.789,2.93,393.555
1869.787,224.121,465.332,16.602,12.207,-4.883
1869.791,195.801,418.945,-0.977,19.531,-216.309
1869.795,-218.75,203.613,-15.137,11.719,-144.531
1869.798,-250.488,280.762,-9.766,-5.371,-126.465
1869.802,151.367,375.488,-9.766,5.371,-138.672
1869.806,272.461,284.668,-13.184,12.207,-77.148
1869.81,-98.633,155.273,-24.414,-9.766,-62.5
1869.814,-299.316,159.18,-30.762,-3.906,-142.578
1869.818,36.621,150.391,-21.973,10.254,-132.812
1869.822,295.41,160.156,-20.996,9.277,-60.059
1869.826,5.371,-84.961,-37.109,11.23,414.551
1869.829,-292.969,41.504,-32.227,-6.348,335.938
1869.833,-92.285,390.625,-24.902,-6.836,-225.098
1869.837,253.906,261.719,-28.809,20.996,-149.902
1869.841,138.184,204.102,-20.996,37.109,-30.762
1869.842,-240.723,249.023,-26.367,11.23,-127.441
1869.846,-196.289,205.078,-40.527,-12.207,-219.238
1869.85,191.895,133.301,-32.715,17.09,-15.137
1869.854,218.262,165.527,-24.902,34.668,41.016
1869.858,-179.199,172.852,-26.367,2.441,-190.43
1869.862,-280.762,67.871,-28.809,-33.203,-262.695
1869.866,93.262,-44.922,-40.039,-0.977,115.723
1869.87,261.23,5.859,-34.668,20.02,389.16
1869.873,-62.5,315.918,-14.16,11.23,14.648
1869.877,-292.969,248.535,-18.066,16.602,-24.902
1869.881,-13.184,185.547,-26.855,10.254,82.52
1869.885,277.344,395.508,-15.625,30.762,30.762
1869.889,43.457,381.836,-18.066,27.344,-117.676
1869.893,-316.406,160.645,-29.297,0.488,-223.145
1869.897,-158.203,233.887,-10.254,6.836,-48.34
1869.9,229.004,464.844,-9.766,20.02,56.641
1869.904,139.648,418.945,-24.902,31.25,-15.625
1869.908,-267.09,121.094,-27.832,20.02,17.578
1869.912,-259.766,6.348,-28.809,10.742,230.957
1869.916,156.25,387.695,-17.578,12.207,78.125
1869.92,217.285,551.758,-15.137,0.977,-179.199
1869.924,-173.34,279.297,-18.555,5.371,-47.363
1869.928,-297.852,225.586,-14.648,14.16,-27.344
1869.932,65.918,365.234,-9.277,30.762,-107.91
1869.933,252.441,437.012,-14.16,41.504,-117.676
1869.937,-78.125,254.883,-18.555,37.109,-30.273
1869.941,-318.359,64.453,-10.254,27.344,18.066
1869.945,-37.598,312.5,-4.395,34.668,-150.879
1869.949,268.066,504.883,-11.719,17.09,-300.781
1869.953,42.969,177.734,-33.691,-7.324,54.688
1869.957,-315.43,-16.602,-40.527,-2.93,489.746
1869.961,-193.359,449.219,-27.832,-22.949,89.844
1869.964,182.129,541.016,-38.086,14.648,-213.379
1869.968,138.184,354.98,-44.434,32.227,-151.855
1869.972,-255.859,307.617,-41.504,-16.113,-189.453
1869.976,-272.949,354.004,-44.922,-30.762,-176.758
1869.98,140.625,358.887,-48.34,-10.742,-89.355
1869.984,222.656,221.191,-41.992,-3.418,16.602
1869.988,-137.207,183.594,-30.762,-15.625,-38.574
1869.992,-304.688,269.531,-29.785,-13.672,-163.574
1869.996,11.719,242.676,-37.109,-7.324,-75.684
1870,249.512,130.859,-42.969,6.348,199.219
1870.004,-43.945,183.105,-38.574,-1.953,111.816
1870.007,-296.875,301.758,-36.133,-29.785,-209.961
1870.011,-50.293,257.324,-39.551,-2.93,-54.199
1870.015,296.387,194.336,-37.598,36.133,279.297
1870.019,129.395,378.906,-25.391,20.508,82.031
1870.023,-252.441,289.551,-27.344,-21.973,-148.438
1870.037,-160.645,105.469,-37.598,-14.648,-173.828
1870.041,240.234,204.102,-43.945,24.902,-193.359
1870.045,211.426,193.359,-38.574,38.574,-72.754
1870.049,-180.176,76.66,-26.367,34.668,-87.891
1870.053,-228.516,-78.125,-30.273,32.715,89.844
1870.057,136.23,-82.52,-27.832,52.734,437.988
1870.061,284.668,236.328,-19.043,51.758,207.52
1870.064,-44.434,188.965,-26.855,-3.906,-44.922
1870.068,-261.719,-143.066,-41.016,-29.785,99.121
1870.072,72.754,-15.625,-41.992,-9.277,102.539
1870.076,365.234,323.242,-31.738,-7.812,-164.062
1870.08,69.824,126.953,-36.621,-9.277,-159.668
1870.082,-263.672,-57.617,-42.48,-23.438,-131.348
1870.086,-57.129,70.312,-33.691,-27.344,-169.434
1870.09,303.223,212.891,-21.973,19.043,-138.184
1870.094,181.641,58.105,-36.133,15.137,-126.465
1870.098,-197.754,-105.469,-46.875,-31.25,-113.77
1870.102,-138.184,-63.477,-37.109,-4.883,-46.387
1870.106,252.441,109.863,-20.02,41.504,59.57
1870.11,249.512,76.172,-25.879,59.082,74.219
1870.113,-132.812,-310.059,-42.969,28.809,312.988
1870.117,-215.332,-117.676,-27.832,1.465,213.379
1870.121,160.156,276.367,-7.324,9.766,-169.434
1870.125,334.961,124.512,-14.16,-3.418,-64.453
1870.127,-17.578,-27.832,-23.438,-11.719,-122.07
1870.131,-266.113,-1.953,-28.32,-31.738,-224.121
1870.135,45.41,-8.789,-38.574,-23.926,-166.992
1870.139,333.496,-144.043,-44.434,20.02,122.559
1870.143,89.844,-111.328,-43.457,11.719,209.473
1870.147,-227.539,-25.879,-37.598,-20.508,39.551
1870.151,-58.594,11.719,-35.156,-2.93,-21.484
1870.155,295.898,-58.105,-32.227,25.879,249.512
1870.159,180.664,-112.305,-33.691,20.508,411.133
1870.162,-187.988,133.789,-36.621,-12.207,-50.293
1870.166,-155.762,87.891,-33.691,-17.578,-219.727
1870.17,194.336,-9.277,-27.344,13.184,-160.645
1870.173,238.77,123.047,-19.531,7.324,-128.906
1870.177,-128.906,141.602,-29.785,-24.414,-152.832
1870.18,-273.438,-21.484,-37.109,-12.207,-98.633
1870.184,57.617,-1.465,-23.438,5.371,-66.406
1870.188,281.738,84.961,-20.996,2.441,-163.086
1870.192,-25.879,-30.273,-28.32,0.488,-127.441
1870.196,-331.543,-137.695,-25.879,-12.695,114.258
1870.2,-73.242,-203.613,-22.949,2.441,412.109
1870.204,272.461,92.285,-14.648,2.441,149.414
1870.208,79.102,186.523,-29.785,-10.742,-194.336
1870.212,-291.504,-133.789,-41.992,-11.719,-75.195
1870.216,-148.926,-97.656,-23.438,6.348,-20.508
1870.217,247.559,175.293,-19.531,24.902,-69.824
1870.221,172.363,143.555,-31.738,8.301,-169.922
1870.225,-236.328,-232.422,-33.203,-8.789,61.523
1870.229,-243.652,-213.379,-30.273,0.488,251.953
1870.233,166.992,164.551,-23.926,15.137,-64.941
1870.237,237.305,88.867,-21.973,30.273,-99.121
1870.241,-145.02,-251.465,-35.156,11.719,204.59
1870.245,-315.918,-291.992,-35.645,-3.906,316.406
1870.248,18.066,146.484,-18.066,11.23,-118.164
1870.252,286.133,182.617,-19.531,19.043,-213.379
1870.256,-9.766,-30.273,-35.156,-6.836,-114.258
1870.26,-304.688,-27.344,-40.527,-27.832,-127.93
1870.28,-52.734,54.688,-31.25,-21.484,-130.859
1870.284,284.18,25.879,-33.691,-1.465,-107.422
1870.288,111.816,2.93,-41.504,6.348,-60.547
1870.292,-265.625,84.473,-31.738,-13.672,-103.516
1870.296,-170.898,123.047,-26.367,-20.02,-208.008
1870.3,222.656,34.668,-35.645,9.277,-79.102
1870.303,208.984,-20.508,-27.832,18.066,153.809
1870.307,-187.988,110.84,-13.184,-14.648,-22.949
1870.311,-254.883,230.957,-14.16,-21.973,-244.629
1870.315,126.953,88.379,-20.996,15.625,-153.32
1870.319,272.949,78.125,-12.207,37.598,-31.25
1870.323,-86.914,240.234,-15.625,19.043,-178.711
1870.322,-309.57,192.383,-28.32,-2.441,-210.449
1870.326,-0.488,170.898,-15.625,32.227,-127.441
1870.33,278.32,237.793,-12.695,48.828,-51.27
1870.334,39.551,274.414,-35.156,17.578,-29.785
1870.338,-296.875,209.473,-49.805,-6.348,-103.516
1870.342,-108.398,221.191,-46.387,-0.977,3.418
1870.346,262.207,400.879,-29.785,33.691,21.484
1870.35,115.234,521.973,-26.367,16.113,-161.133
1870.353,-255.859,485.84,-36.621,-3.418,-230.957
1870.357,-228.516,254.395,-42.969,15.625,20.02
1870.361,154.297,125.488,-38.086,29.785,501.465
1870.365,205.566,514.16,-20.996,32.715,289.551
1870.367,-181.641,579.102,-29.297,5.859,-150.879
1870.371,-262.695,409.18,-40.527,-10.254,-135.742
1870.375,109.375,546.387,-32.227,2.93,-139.648
1870.379,275.879,576.66,-39.062,21.973,-167.969
1870.383,-60.059,352.539,-44.922,30.762,-72.266
1870.387,-298.828,178.711,-42.48,26.367,60.547
1870.39,-21.973,326.172,-33.691,17.578,172.363
1870.394,276.855,455.078,-34.18,37.109,160.156
1870.398,62.988,351.074,-44.434,44.922,98.633
1870.402,-274.902,-17.578,-52.734,12.695,364.258
1870.406,-114.746,254.395,-33.691,4.395,204.102
1870.41,266.113,696.289,-21.484,26.367,-101.562
1870.412,193.848,462.402,-38.574,30.762,-37.598
1870.416,-208.496,295.41,-38.574,12.207,-127.93
1870.42,-204.59,295.898,-38.086,11.23,-92.285
1870.424,197.266,405.762,-33.203,26.367,-93.262
1870.428,258.789,281.738,-36.621,40.527,118.652
1870.432,-127.93,106.445,-43.457,27.344,299.316
1870.435,-249.023,236.328,-43.457,-14.16,44.434
1870.439,97.168,336.426,-45.898,-3.418,-101.562
1870.443,297.852,176.758,-43.457,18.066,128.906
1870.447,-7.812,32.227,-48.34,8.789,323.242
1870.451,-266.602,307.129,-43.945,0.488,-89.844
1870.455,-2.441,308.105,-36.621,5.371,-245.605
1870.457,317.383,241.211,-35.645,14.648,-145.996
1870.461,142.578,243.652,-39.551,26.367,-185.547
1870.465,-209.473,151.855,-38.086,20.508,-232.422
1870.469,-102.539,82.52,-27.832,19.531,-145.996
1870.473,281.738,67.383,-29.785,16.602,-117.188
1870.477,244.629,99.609,-33.691,5.371,17.578
1870.481,-130.859,23.926,-40.527,-12.207,73.73
1870.484,-164.551,-100.586,-47.363,-22.949,-78.125
1870.488,212.891,-119.629,-41.992,23.926,150.879
1870.492,345.215,94.727,-40.039,41.016,165.039
1870.496,-5.859,171.387,-35.645,-12.207,-93.262
1870.5,-188.965,-77.637,-30.762,-18.555,-64.941
1870.502,141.113,-89.844,-29.785,5.371,-80.078
1870.506,399.902,190.43,-22.461,12.695,-216.309
1870.51,113.77,48.828,-31.738,-12.207,-203.613
1870.514,-190.43,-247.07,-33.691,-10.254,20.02
1870.518,25.391,-109.863,-16.602,3.418,138.184
1870.522,401.367,123.535,-12.207,3.906,6.348
1870.526,255.859,70.801,-15.625,29.297,43.457
1870.53,-136.719,-201.66,-12.695,22.461,214.844
1870.533,-62.012,-206.543,0.488,4.395,191.406
1870.537,330.566,199.219,17.09,-2.441,-197.266
1870.541,323.242,126.953,12.695,20.996,-214.844
1870.545,-46.387,-124.512,0,6.348,-81.543
1870.548,-121.094,-91.309,-3.418,-19.531,-76.66
1870.552,257.812,82.031,-2.93,11.23,-254.395
1870.556,421.387,-4.395,-4.883,28.32,-282.715
1870.56,37.109,-194.824,-20.02,20.02,-137.695
1870.564,-185.547,-129.883,-19.043,8.789,-184.57
1870.568,138.672,-32.227,-1.465,2.93,-166.504
1870.572,416.504,-83.984,4.883,26.367,87.402
1870.576,151.367,-304.199,3.418,34.668,289.551
1870.58,-180.176,-133.789,1.465,16.113,67.871
1870.584,-0.488,85.938,-8.301,20.996,-139.16
1870.588,367.188,-33.203,-12.695,48.34,-97.168
1870.591,241.699,-69.336,-11.23,33.203,-58.594
1870.593,-161.133,-49.805,-19.531,-10.742,-83.496
1870.597,-123.047,-102.539,-27.344,-9.766,-105.957
1870.601,268.555,-222.168,-18.066,12.207,201.172
1870.605,281.25,-231.934,-14.648,14.648,219.238
1870.609,-111.816,-119.141,-13.672,-3.906,-120.117
1870.613,-232.422,-156.25,-24.414,0.977,-147.949
1870.616,122.559,-263.184,-32.227,43.945,225.098
1870.62,291.016,-305.176,-12.695,52.246,601.562
1870.624,-47.363,-29.785,-7.324,12.207,193.359
1870.628,-280.762,-12.695,-10.742,0.977,-167.969
1870.632,-20.02,-93.75,11.23,31.25,-69.336
1870.636,273.926,23.438,21.484,35.645,-93.75
1870.639,36.621,19.531,11.23,21.484,-123.535
1870.643,-322.754,-137.207,0,4.883,-51.758
1870.647,-167.969,-181.152,-1.953,11.719,-105.957
1870.65,199.219,-29.785,3.418,34.18,-164.062
1870.654,114.746,-75.684,6.836,23.438,-110.84
1870.658,-278.32,-214.355,3.418,2.441,-54.688
1870.662,-286.133,-411.133,-4.395,3.418,391.113
1870.666,78.125,-144.531,22.949,30.273,369.141
1870.67,148.438,206.543,45.898,10.254,-144.531
1870.674,-213.379,-41.992,36.621,-18.066,-158.691
1870.678,-375.488,-127.93,37.598,3.418,-93.75
1870.682,-21.484,73.73,45.41,27.832,-57.617
1870.697,203.613,131.836,39.062,34.668,-92.773
1870.701,-109.863,-46.387,32.715,13.672,-96.68
1870.705,-391.602,-154.785,30.273,-14.648,-122.559
1870.709,-147.949,20.02,32.227,-5.371,-187.988
1870.713,193.359,241.699,32.715,17.578,-183.105
1870.717,-7.812,-46.875,33.203,18.555,208.496
1870.721,-378.906,-298.828,40.039,2.441,477.051
1870.725,-258.789,80.566,41.992,-14.16,45.898
1870.729,127.441,384.766,49.805,33.203,-195.801
1870.732,91.797,220.703,47.363,43.945,24.902
1870.736,-286.621,226.074,39.062,-6.348,72.754
1870.74,-315.918,457.031,47.852,-12.695,-149.414
1870.742,62.988,458.496,51.758,36.133,-179.199
1870.746,191.895,458.008,51.758,46.875,-119.141
1870.75,-147.461,462.891,44.922,11.23,-91.797
1870.754,-338.867,399.414,34.18,16.602,-213.379
1870.758,-18.555,399.902,41.504,20.02,-207.52
1870.762,245.605,400.391,42.48,18.555,9.766
1870.766,-41.992,344.727,30.273,2.93,47.852
1870.77,-317.871,382.324,21.973,-14.16,-145.02
1870.773,-94.727,409.18,14.648,-2.93,16.602
1870.777,221.191,136.23,3.418,27.344,512.695
1870.781,86.914,333.008,20.02,7.324,296.387
1870.785,-280.273,575.195,19.043,-22.461,-81.055
1870.787,-233.887,357.91,2.93,-20.508,-68.359
1870.791,173.828,431.641,10.254,6.836,-60.059
1870.795,221.191,445.801,3.418,23.438,44.434
1870.799,-162.598,348.633,-6.836,3.906,-13.672
1870.803,-256.348,136.719,-12.695,4.395,40.527
1870.807,117.188,122.07,-2.441,5.371,142.09
1870.811,285.156,407.715,20.508,7.324,-40.039
1870.815,-58.594,387.207,18.066,-6.348,-216.797
1870.818,-298.34,79.59,-3.418,-19.531,1.953
1870.822,12.695,158.203,-7.324,-29.297,181.152
1870.826,327.148,536.621,0.977,-15.625,-170.41
1870.83,73.242,337.891,-20.02,-1.465,-175.293
1870.832,-262.207,178.711,-25.391,-8.301,-123.047
1870.836,-73.73,373.535,-4.883,8.789,-130.859
1870.84,280.762,466.797,1.465,21.484,-201.66
1870.844,187.5,284.668,0.977,9.766,-210.938
1870.848,-201.172,146.973,0,-19.531,-100.098
1870.852,-185.059,141.602,4.883,0,-22.461
1870.856,225.586,263.184,7.324,23.438,19.043
1870.86,278.32,204.59,-3.906,10.742,52.246
1870.864,-119.629,-92.285,-16.602,16.602,183.105
1870.867,-256.836,117.676,-16.113,10.742,-11.719
1870.871,116.699,366.211,-3.906,2.93,-174.805
1870.875,316.895,197.266,14.648,8.301,-95.703
1870.878,-14.648,87.402,18.066,-8.789,-84.961
1870.882,-269.043,77.637,6.348,-23.438,-29.785
1870.886,4.883,121.094,6.348,6.348,-53.711
1870.89,306.641,-1.953,9.277,44.434,67.871
1870.894,67.871,-67.871,6.348,30.273,273.926
1870.898,-250.977,118.164,2.93,-9.766,145.02
1870.902,-88.867,200.684,-0.977,-0.977,25.879
1870.905,245.117,50.781,-2.93,27.832,225.098
1870.909,178.223,18.066,2.441,14.16,225.098
1870.913,-193.848,246.094,22.949,2.441,-191.895
1870.917,-236.328,170.898,27.344,10.742,-253.418
1870.921,148.438,199.219,29.785,1.953,-153.32
1870.923,272.461,297.852,37.109,21.484,-139.648
1870.926,-104.004,252.441,24.902,5.371,-159.18
1870.93,-268.555,105.469,14.16,-16.113,-139.648
1870.934,74.707,107.422,10.742,0.977,-21.484
1870.938,291.016,297.363,9.766,16.602,-13.672
1870.942,-30.762,195.801,4.883,19.043,-68.848
1870.946,-318.359,53.711,-6.348,1.465,-109.863
1870.95,-73.73,-102.051,-7.812,4.883,231.445
1870.954,257.812,183.105,3.418,26.367,280.273
1870.958,84.473,494.141,9.766,7.324,-130.859
1870.962,-290.039,217.285,5.371,-4.883,-97.656
1870.965,-200.684,191.406,-3.906,3.418,-48.828
1870.967,184.57,379.883,-7.324,7.324,-92.773
1870.971,167.48,385.254,-8.789,0.488,-99.609
1870.975,-223.633,45.898,-38.574,-14.16,110.84
1870.979,-281.25,68.359,-37.598,1.953,127.441
1870.983,118.652,360.352,0.977,37.598,-80.566
1870.987,242.188,314.453,4.395,43.945,-45.898
1870.991,-136.23,54.688,-9.766,13.184,283.691
1870.995,-328.613,-88.867,-16.113,-1.953,556.641
1870.998,5.859,355.469,-10.254,0.488,91.797
1871.002,276.855,438.965,-10.254,1.953,-163.574
1871.006,-10.254,203.125,-22.949,3.418,-74.219
1871.01,-308.105,184.57,-20.02,6.348,-132.324
1871.014,-100.098,267.578,-1.465,-1.465,-173.34
1871.018,243.164,229.492,-8.789,-8.301,-143.555
1871.022,110.352,92.773,-30.762,-4.395,-156.738
1871.025,-262.695,91.797,-35.645,-7.812,-202.637
1871.029,-198.242,136.23,-43.457,-5.859,-194.824
1871.033,210.938,73.73,-55.176,26.855,15.137
1871.037,221.191,-27.832,-48.34,41.504,328.125
1871.041,-177.734,36.133,-43.457,-8.789,104.98
1871.045,-268.066,170.41,-63.965,1.465,-201.66
1871.049,89.844,120.605,-76.66,35.645,-77.637
1871.053,268.555,58.105,-63.477,24.902,90.332
1871.057,-69.824,203.125,-54.688,10.254,-83.496
1871.072,-301.27,130.859,-60.059,2.93,-259.766
1871.076,-5.859,96.191,-57.617,23.926,-228.516
1871.08,280.762,150.879,-57.617,41.016,-29.785
1871.084,45.898,170.898,-64.941,8.301,-36.133
1871.088,-288.574,186.523,-62.012,-28.32,-268.066
1871.092,-131.836,-25.879,-68.848,-7.324,26.367
1871.096,231.934,-104.004,-71.777,22.461,436.523
1871.099,145.508,295.898,-46.387,11.23,19.043
1871.103,-242.188,284.668,-43.457,-1.465,-327.148
1871.107,-226.562,131.836,-58.594,-24.414,-179.688
1871.111,155.762,251.465,-50.293,-12.207,-43.457
1871.115,227.051,365.723,-39.062,-4.395,-123.535
1871.117,-137.695,260.254,-50.293,-47.852,-184.57
1871.121,-286.621,83.496,-60.547,-48.828,-75.195
1871.125,66.406,291.016,-46.875,-14.648,-19.531
1871.129,258.301,432.129,-41.504,-2.441,-75.684
1871.133,-78.613,201.172,-53.223,-10.254,-77.148
1871.137,-308.105,34.668,-58.105,-17.578,-42.969
1871.141,-26.855,166.504,-61.523,-3.418,52.734
1871.144,280.273,408.203,-53.711,8.789,1.953
1871.148,58.594,271.973,-52.246,7.324,-21.973
1871.152,-308.594,-97.168,-68.359,14.648,166.504
1871.156,-161.133,265.625,-49.316,12.207,39.062
1871.16,218.75,520.508,-37.109,6.836,-132.324
1871.162,146.973,161.133,-57.617,12.695,23.926
1871.166,-230.957,76.172,-66.406,-15.137,104.004
1871.17,-241.211,186.035,-52.734,-37.109,-57.617
1871.174,137.207,300.293,-31.25,-12.207,-148.438
1871.178,212.402,157.715,-28.809,23.926,9.277
1871.182,-154.297,-16.602,-29.297,11.23,127.93
1871.186,-294.434,175.781,-7.324,-5.371,-12.695
1871.19,39.062,328.613,1.465,14.648,-62.5
1871.193,275.391,83.984,-6.836,30.762,198.242
1871.197,-7.812,-77.148,-17.09,8.789,276.855
1871.201,-285.156,257.812,-15.137,-28.809,-74.707
1871.205,-67.871,208.496,-12.207,-7.324,-102.051
1871.208,254.883,153.809,-7.812,20.508,-71.289
1871.212,98.145,169.922,-11.23,-7.812,-103.027
1871.216,-265.137,22.949,-27.832,-19.043,-99.121
1871.22,-180.176,-20.508,-21.484,0.977,-65.918
1871.224,195.801,35.645,-10.254,32.715,84.473
1871.228,174.805,67.383,-15.625,43.457,169.434
1871.232,-208.496,26.855,-11.23,17.09,53.711
1871.235,-275.391,-10.742,-5.371,18.555,4.395
1871.239,96.191,-43.945,-9.277,43.457,184.57
1871.243,252.441,288.086,-2.441,44.434,84.473
1871.247,-96.68,415.527,-5.371,11.23,-63.477
1871.251,-313.477,152.832,-21.973,-20.02,-45.898
1871.252,8.789,270.02,-29.297,-1.953,-91.309
1871.256,291.016,490.234,-30.273,26.855,-102.051
1871.26,15.625,351.562,-20.508,-6.348,-121.582
1871.264,-311.523,44.434,-21.484,-17.09,134.277
1871.268,-105.957,113.77,-30.762,12.207,213.379
1871.272,271.973,413.574,-20.508,25.391,52.734
1871.276,120.605,362.793,-10.254,15.137,-74.707
1871.28,-305.176,49.805,-20.02,16.113,76.172
1871.283,-260.742,-33.203,-24.414,4.883,371.094
1871.287,172.852,406.25,-14.16,2.441,7.324
1871.291,210.938,380.859,-18.066,22.461,-153.32
1871.295,-172.852,88.867,-23.926,-4.883,-87.891
1871.297,-260.742,79.59,-25.391,-27.832,-173.34
1871.301,95.703,168.457,-21.973,19.043,-207.52
1871.305,244.141,119.629,-28.32,36.133,-102.051
1871.309,-100.098,-28.32,-39.551,8.789,-41.016
1871.313,-328.613,-47.852,-36.621,-4.395,-106.445
1871.317,-50.293,-71.289,-38.574,27.832,-134.277
1871.321,248.535,-69.824,-47.852,39.551,-32.227
1871.325,12.695,-271.973,-54.199,45.41,314.453
1871.329,-319.336,-177.734,-46.875,36.133,173.828
1871.333,-142.09,89.355,-49.316,4.883,-288.574
1871.337,214.844,-83.008,-61.523,-0.488,-121.582
1871.34,120.605,-198.242,-60.059,8.301,16.602
1871.342,-250.488,-92.285,-58.594,8.301,-229.98
1871.346,-254.883,-96.191,-67.383,-19.531,-290.039
1871.35,109.375,-274.414,-81.543,-18.066,-63.477
1871.354,187.012,-245.605,-74.707,-3.906,7.812
1871.358,-162.109,-125,-70.801,-31.25,-213.379
1871.362,-294.922,-240.234,-83.496,-29.297,-204.59
1871.366,29.297,-332.031,-85.449,12.207,256.836
1871.37,226.562,-303.223,-84.961,30.762,435.547
1871.373,-65.43,-101.562,-85.938,-2.93,5.859
1871.377,-334.961,-270.508,-103.516,-26.855,-145.508
1871.381,-75.195,-327.148,-111.816,-0.488,-84.961
1871.385,250,-75.684,-104.492,28.32,-86.426
1871.389,41.016,-30.762,-107.91,9.766,-163.086
1871.393,-324.707,-222.168,-117.188,-24.902,-132.324
1871.397,-209.961,-196.777,-123.535,-18.066,-69.336
1871.4,173.34,35.645,-123.535,7.812,-84.473
1871.404,119.629,62.5,-129.395,20.02,-120.117
1871.408,-286.133,-142.09,-136.719,-21.484,-14.16
1871.412,-308.105,-211.914,-138.184,-13.672,250
1871.416,71.777,246.094,-125.488,26.367,109.863
1871.42,158.203,512.207,-123.047,37.109,-126.465
1871.424,-187.5,213.379,-142.09,21.484,-89.844
1871.428,-354.004,98.633,-150.391,-29.785,-100.586
1871.432,-20.508,286.621,-139.648,-16.602,-75.195
1871.433,238.281,426.27,-135.254,7.812,-109.863
1871.437,-48.34,192.383,-149.414,-8.789,20.508
1871.441,-360.352,-38.086,-156.25,-7.812,127.441
1871.445,-140.625,213.379,-144.043,-9.277,-106.934
1871.449,220.215,428.223,-135.742,11.23,-203.613
1871.453,31.25,96.191,-145.02,25.391,77.148
1871.457,-343.75,-137.695,-142.578,16.113,365.723
1871.461,-257.812,356.445,-124.023,23.926,-59.57
1871.465,110.352,627.93,-107.91,43.945,-213.379
1871.468,120.605,600.098,-104.492,37.109,-78.125
1871.472,-248.535,707.52,-99.121,15.137,-157.715
1871.476,-309.082,878.906,-103.027,6.348,-240.723
1871.48,68.848,960.938,-111.328,26.367,-245.117
1871.484,198.242,957.52,-93.75,35.645,-79.59
1871.488,-166.992,958.984,-66.406,18.066,-39.551
1871.492,-342.773,972.168,-61.523,-18.555,-179.688
1871.496,-11.719,959.961,-60.547,-13.184,-87.402
1871.5,256.836,914.551,-41.016,21.973,235.84
1871.504,-21.484,949.707,-35.156,-8.789,212.402
1871.507,-332.031,978.027,-48.828,-34.18,-86.914
1871.511,-109.375,952.148,-45.898,0.488,-45.898
1871.515,240.234,924.805,-31.25,51.27,108.887
1871.519,134.766,951.66,-21.484,44.434,-88.379
1871.523,-228.516,991.699,-36.133,-1.465,-174.316
1871.537,-185.059,882.324,-61.523,-31.738,25.879
1871.541,200.195,823.242,-70.312,-16.602,213.867
1871.545,231.934,956.055,-63.965,18.066,24.414
1871.549,-111.328,913.086,-65.918,22.461,-86.426
1871.553,-225.586,625,-73.73,3.906,87.891
1871.557,103.027,501.465,-76.66,27.832,452.637
1871.561,291.992,833.496,-69.824,39.551,258.301
1871.565,-20.02,868.164,-74.219,7.324,-80.078
1871.568,-259.766,482.91,-87.891,7.812,20.996
1871.572,15.625,564.453,-84.473,10.254,2.441
1871.576,328.613,869.629,-75.684,25.879,-163.086
1871.58,99.609,621.582,-86.426,47.363,-141.602
1871.582,-247.07,363.281,-97.656,34.18,-130.859
1871.586,-114.258,452.148,-105.469,51.27,-86.914
1871.59,259.766,500.977,-104.98,82.52,-81.055
1871.594,180.176,315.43,-110.352,38.574,-19.531
1871.598,-181.152,83.496,-127.441,-9.766,25.391
1871.602,-124.512,3.906,-135.742,5.859,-53.223
1871.606,228.027,84.473,-136.719,38.086,-106.934
1871.61,283.203,84.961,-145.02,46.387,0.488
1871.613,-89.844,-294.434,-169.434,38.086,362.793
1871.617,-226.562,-187.5,-174.805,14.16,217.285
1871.621,125,237.793,-179.199,20.996,-156.738
1871.625,342.773,64.453,-191.406,41.504,-96.68
1871.627,47.363,-92.773,-183.594,22.949,-110.352
1871.631,-257.812,-97.656,-178.223,19.531,-231.934
1871.635,-29.785,-127.441,-191.895,26.855,-173.828
1871.639,292.48,-268.066,-205.078,38.086,99.609
1871.643,104.98,-304.688,-203.613,30.762,168.457
1871.646,-212.891,-205.566,-206.543,27.344,44.922
1871.65,-82.52,-208.984,-210.449,13.184,6.348
1871.654,276.855,-386.719,-215.82,16.113,195.801
1871.658,219.238,-399.902,-215.82,11.23,397.461
1871.662,-135.254,-102.539,-209.473,-8.789,22.461
1871.666,-161.133,-178.711,-215.82,-35.645,-160.156
1871.67,171.875,-246.094,-211.914,-18.066,-22.949
1871.673,290.527,-163.086,-205.078,-15.137,-8.789
1871.676,-22.949,-247.559,-206.055,-45.898,-154.297
1871.68,-191.406,-429.688,-204.59,-32.715,-181.641
1871.684,149.902,-375.977,-194.824,-22.461,-18.555
1871.688,397.949,-285.156,-189.941,-16.602,29.785
1871.692,125.488,-419.434,-201.66,-24.414,51.758
1871.696,-152.344,-582.52,-208.496,-50.781,46.875
1871.7,39.062,-728.516,-208.496,-16.113,212.891
1871.704,357.91,-403.32,-182.129,15.625,76.66
1871.708,227.539,-240.723,-161.621,-4.395,-255.371
1871.712,-130.371,-577.148,-166.992,-30.762,-2.441
1871.715,-79.102,-543.945,-151.855,-27.344,153.32
1871.717,277.344,-236.328,-120.117,6.836,-111.816
1871.721,273.438,-231.934,-114.746,29.297,-156.738
1871.725,-108.398,-563.965,-129.883,20.996,60.547
1871.729,-209.473,-552.734,-125.488,6.348,52.246
1871.733,103.516,-224.609,-106.445,41.992,-150.391
1871.737,205.566,-252.441,-100.586,62.988,-123.535
1871.741,-116.699,-565.43,-108.398,16.602,117.188
1871.745,-333.008,-641.602,-101.562,-10.742,194.336
1871.749,-95.703,-187.988,-72.754,2.441,-208.984
1871.752,132.812,-131.836,-67.383,15.625,-259.277
1871.756,-89.355,-277.344,-69.336,-9.277,-61.523
1871.76,-385.742,-301.758,-66.406,-42.969,-122.559
1871.765,-259.766,-308.105,-63.477,-47.852,-116.211
1871.769,53.223,-312.012,-64.941,-1.953,-46.875
1871.773,-45.41,-286.621,-64.453,-11.23,43.457
1871.777,-377.441,-218.75,-59.57,-38.574,37.598
1871.781,-387.207,-216.797,-57.129,-7.812,-153.32
1871.785,-105.469,-308.594,-52.734,2.93,-125.488
1871.789,-50.781,-437.5,-55.176,-0.488,199.219
1871.793,-367.188,-269.043,-48.828,-6.348,94.727
1871.796,-515.625,-107.91,-35.156,-2.93,-165.527
1871.8,-239.746,-242.188,-40.527,35.156,-4.883
1871.804,-70.801,-233.398,-41.016,39.062,87.402
1871.808,-337.402,-163.086,-25.879,16.113,-7.324
1871.823,-545.898,-259.766,-22.461,9.277,-76.172
1871.826,-346.68,-351.562,-26.855,23.926,-41.992
1871.83,-74.219,-355.957,-27.344,23.926,30.762
1871.834,-220.703,-348.145,-20.996,-11.23,48.34
1871.838,-526.855,-357.91,-12.207,-40.527,-56.152
1871.842,-397.949,-485.352,-11.23,-6.836,86.426
1871.846,-96.68,-730.957,-14.648,37.109,508.301
1871.85,-158.203,-413.574,-4.883,0.977,269.531
1871.854,-461.914,-166.992,5.859,-13.672,-225.098
1871.858,-487.305,-309.082,15.625,8.789,-187.012
1871.862,-197.266,-240.234,34.18,26.367,-152.344
1871.866,-164.551,-189.453,42.969,26.367,-160.156
1871.867,-485.84,-318.848,40.527,6.348,-100.586
1871.871,-619.629,-412.598,36.133,-7.812,-83.008
1871.875,-358.398,-307.617,34.18,10.254,-129.883
1871.879,-213.867,-285.156,30.273,14.16,-209.961
1871.883,-454.59,-430.664,23.926,12.207,-56.641
1871.886,-654.785,-554.199,19.531,22.949,113.281
1871.89,-465.82,-476.074,20.02,20.508,78.613
1871.894,-183.105,-349.121,30.273,33.203,20.508
1871.898,-325.684,-414.062,35.645,27.832,23.926
1871.902,-607.422,-746.094,22.461,16.113,313.965
1871.906,-495.117,-504.395,34.668,32.715,83.496
1871.91,-209.473,-188.965,54.688,50.781,-249.512
1871.912,-243.164,-360.352,50.781,69.336,-90.82
1871.916,-505.371,-465.82,38.574,53.223,-123.047
1871.92,-526.855,-486.328,33.691,24.902,-111.328
1871.924,-237.305,-376.953,39.551,25.391,-78.613
1871.928,-159.18,-549.316,37.598,56.152,10.742
1871.932,-428.223,-743.652,38.086,63.965,82.031
1871.935,-515.137,-557.129,31.738,58.105,-40.039
1871.939,-283.203,-469.727,19.043,52.734,-113.77
1871.943,-95.703,-651.855,21.973,58.105,82.52
1871.947,-287.109,-769.531,14.16,50.293,329.59
1871.951,-538.086,-517.578,0.488,12.695,-84.473
1871.955,-400.879,-517.09,-6.348,76.172,-243.164
1871.957,-129.395,-437.5,-10.254,103.516,-92.773
1871.961,-191.895,-351.562,-17.578,23.438,-137.207
1871.965,-449.707,-393.066,-20.02,-31.738,-170.898
1871.969,-404.297,-479.98,-25.391,-23.926,-179.688
1871.973,-104.004,-477.051,-29.785,2.441,-162.109
1871.977,-81.543,-411.133,-25.391,-0.488,-37.109
1871.981,-340.82,-428.223,-26.855,-13.672,-39.062
1871.985,-382.812,-398.926,-30.273,-7.812,-96.68
1871.988,-122.07,-416.504,-29.785,11.23,237.305
1871.992,-6.836,-165.527,-16.602,19.043,285.645
1871.996,-227.539,82.52,3.418,13.184,-65.43
1872,-405.273,-67.871,10.254,-6.348,-19.531
1872.002,-212.402,17.09,22.949,-5.371,109.863
1872.006,22.461,345.703,41.016,1.465,-63.965
1872.01,-151.855,368.652,47.363,7.812,-80.566
1872.014,-400.879,311.035,59.57,14.16,166.504
1872.018,-237.305,371.094,76.172,-0.488,180.176
1872.022,46.387,402.344,94.238,25.879,-1.953
1872.026,-45.41,244.141,96.68,31.25,-105.957
1872.029,-310.547,13.184,78.613,5.859,63.965
1872.033,-278.809,116.699,87.891,4.883,257.812
1872.037,18.066,632.812,109.863,22.461,-80.566
1872.041,50.781,708.008,96.68,18.555,-166.992
1872.045,-224.121,592.285,91.797,0.977,-39.062
1872.048,-295.898,831.543,89.844,26.367,-20.996
1872.051,-13.672,497.07,83.008,44.434,-44.922
1872.055,139.16,-595.215,77.637,52.734,1.953
1872.059,-107.91,-1000,54.688,5.859,95.215
1872.063,-272.949,-984.375,29.785,-21.973,31.25
1872.067,-86.426,-973.633,26.367,1.953,-71.777
1872.071,121.094,-922.363,22.949,-1.465,-5.859
1872.075,-58.105,-945.801,10.254,23.926,220.703
1872.079,-302.734,-713.379,17.578,23.438,134.766
1872.083,-200.684,-532.715,19.043,15.625,-116.699
1872.087,41.016,-729.004,10.742,50.293,-20.508
1872.091,-9.766,-893.066,9.277,23.926,-38.574
1872.093,-317.871,-950.195,8.789,-14.648,-211.426
1872.097,-336.914,-970.215,5.859,1.953,-223.633
1872.101,-75.684,-1000,-1.953,41.504,5.371
1872.105,-52.246,-816.895,7.812,56.152,126.953
1872.109,-292.969,-447.754,16.113,45.41,-56.641
1872.113,-394.531,-430.176,4.883,57.129,-168.945
1872.117,-147.461,-499.023,-5.371,46.387,96.191
1872.12,44.434,-372.07,-8.301,35.645,270.02
1872.124,-148.926,-49.316,1.953,20.996,-116.699
1872.128,-343.262,-83.984,3.418,-9.277,-189.453
1872.132,-191.406,-183.105,0.488,2.93,-124.023
1872.136,35.156,-85.449,1.953,41.992,-153.809
1872.139,-114.746,-240.234,-3.418,38.574,-224.609
1872.143,-363.77,-776.855,-18.066,-8.301,-233.398
1872.147,-259.277,-1000,-33.691,-19.043,-169.922
1872.151,57.129,-984.375,-42.969,20.508,-119.141
1872.154,75.195,-999.023,-45.898,33.691,-77.148
1872.158,-194.824,-1000,-45.898,-1.465,-59.082
1872.162,-227.051,-1000,-45.41,-9.766,318.359
1872.166,30.762,-1000,-44.434,-1.953,379.395
1872.17,102.539,-994.629,-46.387,-7.324,-109.375
1872.174,-249.023,-1000,-56.152,-25.391,-166.016
1872.178,-519.043,-960.938,-61.523,-25.391,-157.227
1872.182,-341.797,-695.801,-64.941,0,-250.977
1872.182,-144.043,-338.379,-66.895,10.742,-209.473
1872.186,-343.262,-108.887,-68.359,12.695,-74.219
1872.19,-594.727,194.336,-64.941,-8.301,11.719
1872.194,-415.527,568.359,-56.641,7.812,-46.387
1872.198,-80.078,882.812,-52.734,8.301,-192.383
1872.202,-250,766.602,-50.293,-11.719,70.801
1872.206,-701.172,468.75,-44.922,-17.09,438.477
1872.209,-712.402,480.957,-30.273,-43.457,92.285
1872.213,-450.195,432.617,-29.297,-40.527,-205.078
1872.217,-557.129,259.766,-34.18,-12.207,42.969
1872.221,-921.387,447.266,-34.668,-32.715,37.109
1872.225,-1000,864.258,-30.273,-49.805,-229.492
1872.242,-982.91,968.75,-31.738,-38.574,-178.711
1872.246,-992.676,958.008,-46.387,-36.133,-94.238
1872.25,-1000,965.332,-45.898,-37.598,-86.914
1872.254,-1000,966.797,-45.898,-25.879,-94.727
1872.258,-1000,966.309,-50.293,-3.418,-124.023
1872.262,-1000,965.82,-65.43,23.926,-36.621
1872.265,-1000,966.309,-59.57,15.625,-51.758
1872.269,-1000,965.82,-32.227,10.254,-185.059
1872.273,-1000,965.82,-44.434,20.508,-32.227
1872.277,-1000,966.309,-59.082,59.57,103.516
1872.281,-997.559,966.309,-70.312,69.824,-20.02
1872.285,-990.234,965.82,-83.008,14.16,-78.125
1872.287,-1000,965.82,-91.797,0,29.297
1872.291,-764.16,966.309,-98.145,7.812,294.922
1872.295,-500.977,966.309,-104.492,10.254,169.434
1872.299,-715.82,965.82,-110.352,-25.879,-103.516
1872.303,-696.289,965.82,-104.98,-41.992,30.273
1872.307,-242.188,965.82,-98.145,-6.348,175.293
1872.31,4.395,965.82,-84.961,20.02,-80.566
1872.314,-239.746,965.82,-75.195,20.996,-164.551
1872.318,-417.48,966.309,-88.867,3.418,86.426
1872.322,-58.594,963.379,-90.332,0,223.633
1872.326,351.074,966.797,-81.055,24.414,59.082
1872.33,190.43,962.891,-90.332,8.789,11.719
1872.332,-138.184,881.348,-86.914,-34.18,20.02
1872.336,65.43,822.754,-83.984,-45.898,53.711
1872.34,541.016,745.605,-85.938,-21.484,-37.598
1872.344,555.664,592.285,-86.426,-1.953,-76.172
1872.348,255.859,476.074,-86.426,-11.23,-66.895
1872.352,298.828,404.785,-76.66,3.418,-50.293
1872.356,727.051,368.652,-86.426,20.02,-76.66
1872.36,917.969,296.387,-101.074,11.23,-76.66
1872.364,587.402,185.547,-94.238,3.418,162.109
1872.367,465.82,222.656,-91.309,-18.066,71.289
1872.371,805.664,178.223,-97.656,6.348,-228.027
1872.375,-989.746,80.566,-89.355,42.48,-133.789
1872.377,826.66,59.57,-84.473,12.207,-21.484
1872.381,552.246,39.551,-91.797,-21.484,-103.027
1872.385,738.281,25.391,-95.215,-13.184,-114.258
1872.389,-991.211,-73.73,-91.797,8.789,82.031
1872.393,879.883,-146.484,-88.379,2.93,205.566
1872.397,577.637,-131.836,-85.938,-11.719,96.68
1872.401,673.34,-157.227,-91.309,-5.859,-58.105
1872.405,959.473,-252.441,-106.445,26.855,90.82
1872.409,953.125,-275.391,-105.957,11.23,262.695
1872.413,634.766,-216.797,-100.098,-33.691,-68.359
1872.416,544.434,-279.785,-104.98,-16.113,-117.188
1872.42,866.211,-316.895,-92.285,12.695,-12.695
1872.423,987.305,-314.941,-81.055,14.648,-13.184
1872.426,692.871,-368.164,-86.426,15.137,-63.965
1872.43,438.477,-457.031,-89.355,0.488,-120.117
1872.434,711.914,-487.305,-93.75,11.719,-83.008
1872.438,978.516,-478.516,-94.727,22.949,-143.066
1872.442,689.941,-540.039,-84.961,12.695,-179.688
1872.446,324.219,-594.238,-77.148,-2.441,-128.906
1872.45,480.469,-649.902,-90.82,13.184,261.719
1872.454,834.961,-585.938,-86.914,47.363,261.719
1872.458,711.914,-551.758,-68.848,38.574,-109.863
1872.462,305.664,-656.25,-69.824,28.809,-76.66
1872.465,301.27,-681.641,-68.359,40.527,-52.246
1872.467,666.504,-659.18,-64.453,41.992,-84.961
1872.471,703.125,-694.824,-67.871,21.973,-123.047
1872.475,305.664,-822.754,-92.285,11.23,40.527
1872.479,169.434,-824.707,-96.68,17.09,101.074
1872.483,524.902,-759.766,-68.848,36.621,-73.73
1872.487,715.332,-811.523,-63.477,37.109,-122.559
1872.491,358.398,-895.996,-85.449,29.297,175.293
1872.495,89.844,-916.992,-96.68,20.996,431.152
1872.498,378.418,-797.363,-74.707,42.48,47.852
1872.502,671.875,-823.73,-65.918,57.617,-154.785
1872.506,444.824,-879.395,-77.148,18.555,-86.914
1872.51,128.906,-860.84,-98.633,-10.742,-121.094
1872.514,285.645,-844.238,-105.469,-10.742,-159.18
1872.518,655.273,-867.676,-94.238,16.113,-85.938
1872.522,567.871,-896.484,-101.074,28.32,-89.355
1872.525,183.105,-871.582,-110.84,-4.395,-165.039
1872.529,183.594,-858.887,-104.98,-9.766,-159.18
1872.533,562.012,-887.695,-104.98,17.09,-81.543
1872.537,635.742,-892.09,-118.164,28.809,125.977
1872.541,234.863,-831.543,-119.629,13.184,96.68
1872.545,59.082,-791.504,-113.281,-1.953,-209.473
1872.549,404.297,-826.66,-115.234,14.648,-122.07
1872.553,589.355,-847.656,-106.445,39.062,72.754
1872.557,257.812,-791.504,-96.191,17.09,-193.848
1872.557,-39.062,-805.176,-95.703,-11.719,-345.703
1872.561,187.012,-823.242,-96.191,-4.395,-225.586
1872.565,498.047,-821.777,-108.398,36.621,-106.934
1872.569,291.992,-813.477,-115.723,38.574,-113.77
1872.573,-70.312,-798.34,-108.887,21.484,-166.992
1872.577,21.973,-860.84,-107.422,18.066,125.977
1872.58,395.02,-874.512,-107.422,8.789,466.309
1872.584,364.258,-741.211,-92.285,-2.441,117.676
1872.588,-32.227,-725.098,-85.938,-5.371,-216.309
1872.592,-101.074,-765.625,-97.656,4.883,-54.688
1872.596,279.785,-714.355,-102.051,23.438,28.809
1872.6,414.062,-684.57,-105.469,3.906,-108.398
1872.617,61.035,-726.074,-110.84,-42.48,-164.551
1872.621,-99.121,-743.164,-114.746,-60.059,-53.711
1872.625,255.859,-686.523,-120.605,-32.227,-34.18
1872.629,497.559,-659.668,-110.352,0.977,-95.703
1872.633,194.336,-696.289,-97.168,-7.324,7.324
1872.637,-112.793,-728.027,-99.121,-20.508,49.316
1872.641,116.211,-687.012,-104.492,-9.277,-81.543
1872.645,479.492,-623.535,-99.609,-0.977,-135.254
1872.648,288.574,-675.781,-110.84,-15.625,-51.27
1872.652,-118.164,-716.797,-123.047,-26.367,136.719
1872.656,-26.367,-616.699,-112.793,-11.719,41.992
1872.66,351.562,-605.469,-99.121,32.715,-122.559
1872.662,306.641,-663.574,-87.402,34.668,10.254
1872.666,-88.867,-636.23,-87.402,-13.672,124.023
1872.67,-166.992,-592.285,-79.59,-18.066,55.176
1872.674,194.336,-574.219,-68.848,8.789,-61.523
1872.678,359.375,-619.629,-71.289,29.297,90.82
1872.682,8.789,-643.066,-78.613,1.465,194.824
1872.686,-222.168,-563.965,-65.918,-15.137,9.277
1872.69,96.68,-542.48,-56.152,-6.348,-118.652
1872.693,361.816,-624.512,-65.43,-7.324,53.223
1872.697,87.402,-623.047,-62.5,-11.719,284.18
1872.701,-224.121,-537.109,-42.48,-24.414,-76.66
1872.705,-37.109,-568.848,-40.039,6.348,-181.641
1872.71,334.961,-568.359,-38.086,20.02,-159.18
1872.714,218.262,-544.434,-43.457,-3.906,-143.066
1872.718,-167.969,-559.082,-57.617,-13.672,-86.914
1872.722,-133.301,-545.898,-58.105,-3.418,-134.766
1872.726,268.066,-538.086,-45.41,21.484,16.602
1872.73,289.062,-539.551,-36.621,14.648,69.336
1872.734,-120.117,-543.945,-37.109,6.348,-117.188
1872.738,-232.422,-553.223,-46.387,14.648,-100.586
1872.741,128.906,-572.266,-44.922,29.297,244.141
1872.745,320.801,-508.301,-25.879,44.922,127.93
1872.749,-18.555,-496.094,-20.02,32.715,-132.812
1872.753,-270.02,-548.828,-31.738,8.301,-24.414
1872.752,8.789,-516.113,-29.297,11.23,38.574
1872.756,325.684,-488.281,-26.367,35.645,4.395
1872.76,114.746,-513.184,-30.762,24.902,-38.574
1872.764,-227.051,-553.223,-41.504,19.043,125
1872.768,-73.242,-534.668,-52.246,40.039,159.668
1872.772,320.801,-466.309,-50.781,28.809,5.371
1872.775,253.906,-458.984,-50.293,9.277,-87.402
1872.779,-141.113,-525.391,-50.293,-2.441,-2.93
1872.783,-144.043,-515.625,-28.809,5.371,244.141
1872.787,254.395,-382.324,-1.465,19.531,54.688
1872.791,337.891,-409.668,-5.371,9.277,-100.586
1872.795,-48.34,-452.148,-6.836,-2.441,-104.004
1872.798,-219.727,-430.176,-9.277,-6.348,-213.379
1872.802,113.77,-406.738,-9.277,11.719,-264.648
1872.806,333.008,-406.25,-5.859,21.973,-178.711
1872.81,0.977,-408.203,-12.207,28.32,-117.188
1872.814,-309.57,-384.277,-13.184,19.043,-65.918
1872.818,-94.238,-393.555,9.277,22.949,-33.691
1872.822,214.844,-383.789,34.668,58.105,19.043
1872.825,17.578,-437.012,40.039,55.176,500.488
1872.829,-364.258,-395.996,51.27,44.922,423.34
1872.833,-258.789,-317.871,69.824,50.293,-152.344
1872.837,135.254,-365.723,77.637,66.406,-104.492
1872.841,95.215,-374.512,73.73,72.266,-96.191
1872.842,-307.617,-357.422,78.125,47.852,-173.34
1872.846,-332.52,-362.305,82.031,29.297,-235.84
1872.85,25.391,-393.555,66.895,42.969,-59.082
1872.854,140.625,-379.883,68.848,68.848,77.148
1872.858,-197.266,-365.234,77.148,38.086,-180.176
1872.862,-381.836,-383.301,68.848,-6.836,-220.215
1872.866,-77.637,-406.738,52.734,17.578,161.621
1872.87,166.016,-398.438,42.969,42.969,355.469
1872.873,-90.82,-322.266,46.387,32.715,56.641
1872.877,-410.156,-346.68,27.344,18.066,-152.832
1872.881,-235.352,-355.469,25.879,29.785,-49.805
1872.885,102.051,-318.359,57.617,39.551,-11.719
1872.889,-45.898,-329.102,60.547,39.551,-169.434
1872.893,-422.363,-370.605,46.875,32.715,-132.812
1872.897,-352.539,-366.211,46.875,27.832,-61.035
1872.9,62.012,-325.684,40.527,46.387,-68.359
1872.904,59.57,-336.914,23.926,34.18,-110.84
1872.908,-344.238,-376.953,5.859,23.926,15.137
1872.912,-425.293,-374.512,-2.441,35.645,248.047
1872.916,-47.363,-300.293,3.906,38.086,20.508
1872.92,128.418,-275.391,10.254,42.48,-256.348
1872.924,-246.094,-326.172,17.09,39.551,-148.438
1872.928,-496.582,-354.492,13.672,19.043,-59.082
1872.932,-207.52,-313.965,16.602,17.578,-145.996
1872.933,63.477,-284.18,11.719,40.527,-158.203
1872.937,-200.195,-351.562,-10.742,18.555,34.18
1872.94,-533.691,-387.695,-10.742,-1.465,112.305
1872.944,-347.656,-313.477,0.488,13.184,-40.527
1872.948,30.273,-281.738,-3.906,20.508,-128.418
1872.952,-91.797,-372.07,-22.461,18.555,144.043
1872.956,-490.234,-409.18,-29.785,35.645,616.211
1872.96,-474.609,-303.711,2.93,36.133,206.055
1872.964,-125.488,-294.922,18.555,27.344,-131.348
1872.968,-96.191,-334.961,6.348,-4.883,-48.828
1872.972,-485.352,-317.871,3.906,-43.457,-154.297
1872.976,-650.879,-295.898,1.465,-34.18,-162.109
1872.98,-387.695,-295.898,1.953,-0.977,-57.617
1872.984,-293.457,-276.367,-0.488,6.836,129.395
1872.988,-718.75,-219.727,-9.277,-1.953,134.277
1872.992,-1000,-184.57,-18.555,-10.254,-87.402
1872.996,-925.293,-176.27,-36.133,11.719,-200.195
1873,-812.5,-148.438,-56.641,20.508,-27.832
1873.003,-950.195,-83.984,-59.57,2.93,-8.789
1873.007,-1000,-18.066,-67.383,-17.09,-176.758
1873.011,-993.164,17.578,-93.75,2.93,-106.445
1873.015,-1000,72.754,-108.398,1.465,213.379
1873.019,-1000,204.59,-94.238,-38.086,58.594
1873.023,-1000,281.25,-105.469,-36.621,-160.645
1873.037,-1000,329.102,-129.395,-35.645,-145.508
1873.041,-1000,532.227,-124.023,-37.109,-175.781
1873.045,-1000,648.438,-126.953,-45.41,-166.016
1873.049,-1000,583.984,-129.395,-46.387,-176.758
1873.053,-1000,498.047,-113.77,-23.438,46.387
1873.057,-1000,432.129,-100.098,-20.996,371.094
1873.061,-1000,518.555,-80.566,-32.715,136.719
1873.065,-995.605,557.129,-73.242,-52.246,-162.598
1873.068,-1000,517.578,-86.426,-50.293,34.668
1873.072,-995.117,564.941,-81.543,-22.949,71.777
1873.076,-824.219,640.625,-76.172,-8.301,-178.223
1873.08,-834.473,615.234,-74.219,-31.25,-213.867
1873.082,-1000,621.582,-58.105,-14.648,-162.109
1873.086,-871.582,697.266,-47.363,1.465,-90.82
1873.09,-416.016,765.625,-41.992,-22.949,-87.891
1873.094,-330.566,796.875,-46.875,-40.527,-71.777
1873.098,-606.934,816.406,-50.781,-44.434,-16.602
1873.102,-610.352,912.109,-50.293,-48.828,69.824
1873.106,-245.117,968.262,-49.805,-51.758,67.383
1873.11,-96.68,963.867,-49.805,-36.621,57.617
1873.114,-419.434,964.844,-59.57,-30.273,415.039
1873.117,-555.664,966.309,-55.176,-27.344,370.117
1873.121,-253.906,965.82,-40.527,-28.809,-113.77
1873.125,-42.48,965.82,-56.152,-9.277,-88.867
1873.127,-244.629,965.82,-55.176,-10.254,-82.52
1873.131,-452.148,965.82,-35.645,-30.762,-167.969
1873.135,-186.035,965.82,-31.25,-28.32,-159.18
1873.139,189.453,965.82,-39.062,-12.207,87.891
1873.143,125.977,965.82,-39.062,-17.578,208.984
1873.146,-121.094,965.82,-35.156,-28.809,22.461
1873.15,12.207,965.82,-38.574,-18.555,-61.523
1873.154,414.062,964.844,-42.969,1.953,160.645
1873.158,466.797,965.332,-44.434,25.879,441.895
1873.162,178.223,965.82,-37.109,-17.09,9.277
1873.166,165.039,965.82,-42.969,-45.898,-213.867
1873.17,531.25,962.891,-50.293,-5.371,-101.074
1873.173,701.172,969.727,-52.246,-2.441,-133.301
1873.177,455.078,926.27,-57.617,-16.113,-200.684
1873.181,289.062,810.059,-59.082,-22.949,-197.266
1873.185,549.316,750.488,-59.57,-40.527,-127.93
1873.189,822.754,717.773,-53.223,-28.809,-128.906
1873.193,620.117,600.098,-51.758,-22.949,-21.973
1873.197,340.332,462.891,-58.594,-38.086,2.93
1873.2,500,368.652,-66.895,-14.648,203.613
1873.204,795.898,439.453,-63.477,6.836,211.426
1873.208,698.242,403.32,-70.801,-16.113,-151.367
1873.212,403.809,232.91,-76.172,-42.969,-109.375
1873.216,433.594,210.449,-75.195,-22.949,9.277
1873.217,786.621,265.137,-68.848,0.977,-245.605
1873.221,797.852,188.965,-57.617,-3.418,-310.059
1873.225,458.496,31.738,-71.777,-19.043,-89.355
1873.229,383.301,34.18,-72.754,-29.785,-125.977
1873.233,682.129,102.539,-55.664,-16.602,-175.781
1873.236,893.555,51.758,-56.152,-15.137,-56.152
1873.24,640.625,-115.723,-77.637,-23.438,140.137
1873.244,399.902,-186.523,-74.707,-18.555,332.52
1873.248,651.855,13.672,-42.969,-20.996,33.691
1873.252,944.824,-18.066,-45.898,-12.695,-114.746
1873.256,746.582,-148.438,-61.523,-11.23,-127.441
1873.26,440.918,-181.152,-63.477,-22.949,-215.82
1873.265,553.223,-189.453,-74.219,-34.18,-187.988
1873.269,861.816,-168.457,-86.426,-10.742,-74.707
1873.273,789.062,-218.75,-93.75,-13.184,30.762
1873.277,450.195,-217.773,-104.004,-43.457,-29.785
1873.281,419.434,-219.727,-125,-35.645,-192.871
1873.285,707.031,-276.367,-127.441,3.906,-88.867
1873.289,739.258,-305.664,-121.582,15.625,255.859
1873.292,417.969,-197.266,-126.465,-16.602,176.758
1873.296,270.996,-181.152,-132.324,-31.738,-189.941
1873.3,515.625,-260.742,-126.465,-18.066,-183.105
1873.304,705.078,-218.75,-129.883,-31.25,-34.18
1873.308,424.316,-175.293,-138.672,-36.621,-87.891
1873.322,166.016,-208.984,-139.16,-19.043,-107.91
1873.326,351.074,-240.723,-146.973,-19.531,7.812
1873.33,597.168,-257.812,-139.16,-0.488,47.363
1873.334,455.078,-235.352,-124.512,10.254,46.875
1873.338,147.461,-209.961,-116.211,-20.996,-20.508
1873.342,197.754,-284.18,-127.93,-16.602,144.531
1873.346,511.719,-397.461,-150.391,15.137,576.66
1873.35,494.141,-214.844,-128.906,-3.906,335.938
1873.354,158.691,-93.262,-109.863,-36.133,-106.934
1873.357,102.539,-170.898,-116.699,-18.066,-97.168
1873.361,394.531,-140.137,-113.281,17.09,-32.715
1873.365,497.07,-140.137,-101.074,15.625,-103.516
1873.367,178.711,-201.66,-106.445,-16.113,-190.918
1873.371,-19.043,-229.98,-114.258,-41.504,-154.785
1873.375,260.254,-170.41,-109.375,-33.691,-205.078
1873.379,480.957,-136.23,-114.746,-2.441,-254.395
1873.383,209.473,-201.66,-122.559,-1.465,-97.656
1873.387,-96.191,-274.902,-125.488,0.488,37.598
1873.391,75.684,-198.73,-118.652,-2.441,20.508
1873.395,368.652,-95.215,-112.305,-12.695,-67.383
1873.399,220.703,-144.043,-115.723,-2.441,-30.273
1873.402,-112.793,-290.039,-120.605,8.301,229.492
1873.406,-50.781,-136.719,-109.863,-14.16,83.008
1873.41,279.785,-41.504,-110.84,-11.23,-107.422
1873.412,291.992,-142.578,-119.141,1.953,-28.809
1873.416,-43.457,-153.32,-111.328,-7.324,-67.383
1873.42,-116.699,-146.484,-116.699,-26.855,-83.984
1873.424,199.707,-53.223,-122.559,-30.762,-127.441
1873.428,317.383,-74.219,-115.723,3.418,-12.207
1873.432,27.344,-128.418,-113.77,-7.812,192.871
1873.436,-144.531,-22.461,-106.445,-30.273,-25.391
1873.439,104.492,28.32,-96.68,-18.066,-164.062
1873.443,330.566,-51.758,-104.98,4.883,92.773
1873.447,115.723,-78.613,-119.141,-1.953,323.73
1873.451,-140.137,118.164,-103.516,-39.551,-4.395
1873.455,22.461,112.305,-96.191,-11.719,-135.254
1873.457,315.918,72.754,-93.75,20.996,-81.543
1873.461,240.234,78.125,-84.473,14.16,-171.875
1873.465,-37.598,31.25,-88.379,8.789,-257.812
1873.469,-19.531,-35.156,-97.168,-20.508,-242.188
1873.473,308.105,-44.434,-88.867,-18.066,-125.488
1873.477,382.812,-26.367,-82.031,-9.277,-68.848
1873.48,74.707,-5.371,-81.055,-26.855,-42.48
1873.484,-33.203,-1.465,-79.59,-32.715,-69.824
1873.488,230.469,-132.324,-86.914,-13.184,182.129
1873.492,403.809,-42.969,-75.195,4.883,232.91
1873.496,170.41,55.664,-65.918,-7.812,-86.914
1873.5,-46.387,-114.746,-75.195,-27.344,-11.719
1873.502,164.551,-135.742,-80.078,-12.207,52.246
1873.506,436.035,-12.207,-62.988,-2.93,-87.402
1873.51,247.559,-96.191,-53.711,-28.32,-59.57
1873.514,-42.48,-258.301,-69.336,-38.086,120.605
1873.518,75.195,-212.891,-75.195,-10.742,153.32
1873.522,371.094,-124.023,-72.754,5.371,-111.328
1873.526,312.5,-144.043,-74.219,-2.93,-187.012
1873.529,1.953,-242.188,-71.777,8.789,36.621
1873.533,-36.133,-221.191,-61.035,29.785,157.227
1873.537,276.367,-10.742,-55.176,35.156,-172.363
1873.541,365.234,-46.387,-67.383,26.855,-267.578
1873.545,47.852,-96.191,-59.57,-7.324,-111.328
1873.547,-81.055,-26.367,-43.457,-33.691,-112.305
1873.551,200.195,28.809,-50.293,-31.738,-156.25
1873.555,387.207,-36.621,-57.129,-8.301,-50.293
1873.559,160.645,-131.348,-56.641,-26.855,-14.648
1873.563,-56.641,-116.699,-60.547,-53.223,-57.129
1873.567,99.121,-103.516,-64.453,-22.949,-13.672
1873.571,370.117,-99.609,-56.641,-4.395,24.414
1873.575,235.84,-163.574,-77.637,1.465,257.812
1873.578,-64.453,-33.691,-78.613,5.371,105.957
1873.582,49.316,125,-41.504,-1.953,-136.719
1873.586,350.098,35.156,-49.316,6.836,-24.414
1873.59,312.988,-20.02,-46.875,21.484,-5.371
1873.593,25.879,-46.387,-46.387,3.906,-36.133
1873.597,0.977,-117.676,-60.547,4.883,-136.23
1873.601,294.922,-204.102,-65.43,36.133,87.402
1873.605,415.039,-199.219,-75.195,16.113,325.195
1873.609,125.977,-66.406,-74.219,-13.672,0
1873.613,-74.219,-94.238,-72.754,-15.137,-179.688
1873.617,172.363,-196.289,-77.637,17.09,213.379
1873.62,372.559,-151.367,-88.379,42.969,343.75
1873.624,187.988,24.902,-86.914,9.766,-100.098
1873.628,-158.203,-34.18,-77.148,-23.926,-218.75
1873.632,-705.078,-83.008,-72.754,-34.668,-89.844
1873.636,-1000,-24.414,-68.359,-25.391,-74.707
1873.639,-986.816,10.742,-57.129,-15.137,-164.551
1873.643,-997.07,-45.41,-56.641,-45.41,-207.031
1873.647,-1000,-41.992,-65.918,-45.41,-184.57
1873.65,-1000,46.387,-77.148,-20.996,-63.965
1873.654,-1000,64.453,-71.777,-20.996,22.949
1873.658,-1000,35.645,-72.754,-23.926,-88.867
1873.662,-1000,-71.777,-83.984,-3.906,279.297
1873.666,-1000,66.895,-63.477,14.648,434.57
1873.67,-1000,262.207,-42.48,-0.488,-90.82
1873.674,-1000,161.621,-53.711,-18.066,-103.516
1873.678,-1000,172.852,-60.547,-20.508,-32.227
1873.682,-1000,292.969,-61.035,18.066,-188.965
1873.682,-1000,367.676,-51.27,21.973,-179.688
1873.686,-1000,386.23,-42.969,0,11.23
1873.69,-1000,443.848,-42.969,-16.113,54.688
1873.694,-1000,722.656,-38.574,-12.695,-78.613
1873.698,-998.535,947.266,-29.297,0,-216.797
1873.702,-1000,965.332,-30.762,13.184,87.891
1873.706,-1000,960.449,-29.297,24.902,435.059
1873.71,-1000,967.285,-16.113,16.602,121.582
1873.714,-1000,966.309,8.301,45.898,-153.809
1873.718,-1000,966.309,27.832,71.777,74.707
1873.721,-1000,965.82,41.992,56.152,142.578
1873.725,-1000,965.82,54.688,41.992,-155.273
1873.742,-1000,966.309,51.758,64.941,-204.59
1873.746,-1000,965.82,57.129,99.121,-158.691
1873.75,-1000,965.82,67.383,100.098,-108.398
1873.754,-1000,965.82,65.43,70.312,-247.559
1873.758,-1000,965.82,59.57,77.148,-268.066
1873.761,-1000,966.309,56.641,113.77,-59.082
1873.765,-1000,965.82,68.848,127.441,-61.523
1873.769,-1000,965.82,78.125,90.82,-150.879
1873.773,-1000,966.309,76.172,89.844,-44.434
1873.777,-1000,966.309,70.801,131.836,397.461
1873.781,-1000,965.82,75.684,113.77,297.363
1873.785,-1000,965.82,84.473,77.148,-211.426
1873.787,-1000,966.309,87.891,88.379,-161.621
1873.791,-1000,965.82,97.168,104.004,-65.43
1873.795,-1000,966.309,97.656,110.352,-121.582
1873.799,-1000,965.82,101.074,99.609,-184.57
1873.803,-1000,965.82,92.773,85.938,-68.848
1873.807,-1000,965.82,98.633,130.371,110.352
1873.811,-1000,965.82,102.539,124.023,-25.879
1873.814,-1000,966.309,104.98,61.523,-245.117
1873.818,-993.164,964.844,101.562,46.387,-40.527
1873.822,-1000,960.938,92.773,49.805,182.617
1873.826,-901.367,966.797,110.352,56.152,-105.469
1873.83,-776.855,966.797,99.609,63.965,-219.727
1873.832,-847.656,937.988,76.66,50.781,-41.016
1873.836,-381.836,945.312,86.426,36.621,4.883
1873.84,407.715,976.074,98.633,37.598,-147.461
1873.844,756.836,927.246,89.355,41.504,-83.008
1873.848,817.383,672.852,81.055,19.531,-39.062
1873.852,925.781,397.949,86.914,31.25,-16.113
1873.855,973.633,375.488,94.238,68.848,-19.531
1873.859,960.449,369.629,83.008,76.172,-38.086
1873.863,965.82,-257.324,64.941,58.105,160.156
1873.867,965.332,-248.047,68.848,24.414,67.383
1873.871,964.844,363.281,77.637,38.086,-238.77
1873.875,965.332,349.609,83.496,69.824,-99.609
1873.877,964.844,234.863,80.078,41.016,42.969
1873.881,964.844,185.547,74.707,15.137,-27.832
1873.885,965.332,209.473,90.82,47.852,-48.828
1873.889,966.309,-55.664,120.605,101.074,141.602
1873.893,962.402,-463.867,126.953,135.742,293.457
1873.897,950.195,-28.809,120.117,123.047,151.367
1873.901,963.867,226.562,115.723,122.559,-64.941
1873.905,684.57,-53.223,82.031,115.723,89.844
1873.908,-110.84,11.23,35.645,34.668,257.324
1873.912,-843.262,718.262,5.859,-28.32,-47.363
1873.916,-1000,984.863,-44.434,-24.902,-78.125
1873.92,-981.934,931.641,-106.934,-44.922,-102.051
1873.925,-1000,959.961,-173.828,-117.188,-131.836
1873.928,-1000,969.727,-236.816,-202.148,-176.27
1873.932,-1000,964.844,-305.664,-275.879,-120.117
1873.936,-1000,966.309,-390.137,-326.172,55.664
1873.94,-1000,966.309,-471.68,-409.668,-43.945
1873.944,-1000,965.82,-566.406,-529.297,-77.148
1873.948,-1000,965.82,-683.594,-631.836,-17.09
1873.952,-1000,965.82,-777.344,-704.59,193.848
1873.956,-1000,966.309,-818.848,-761.23,149.414
1873.96,-990.234,966.309,-828.613,-811.035,-204.102
1873.964,-1000,966.309,-788.086,-813.477,-181.641
1873.967,-954.59,966.309,-725.586,-745.117,-98.633
1873.967,-547.363,965.82,-672.852,-674.316,-117.188
1873.971,-187.988,965.82,-632.324,-633.301,-111.816
1873.975,-145.508,965.82,-607.91,-593.75,20.996
1873.979,93.262,965.82,-580.566,-585.938,20.02
1873.983,567.383,965.82,-536.133,-545.898,-56.641
1873.987,795.898,965.82,-495.117,-481.934,16.113
1873.991,664.551,965.82,-479.492,-486.328,253.906
1873.995,617.676,965.82,-464.844,-507.812,640.137
1873.998,838.379,965.82,-431.152,-503.418,269.043
1874.002,973.633,967.773,-410.645,-454.59,-150.391
1874.006,964.355,957.031,-398.926,-420.41,-89.355
1874.01,944.336,945.312,-380.859,-417.48,-134.277
1874.014,928.223,934.082,-377.93,-411.133,-215.82
1874.018,985.352,209.473,-392.09,-377.441,-90.82
1874.022,781.25,-843.75,-399.414,-373.535,-32.227
1874.026,327.148,-1000,-399.414,-378.418,-127.441
1874.03,-22.461,-969.238,-416.504,-391.113,-144.531
1874.033,1.953,-1000,-431.152,-397.461,-71.777
1874.037,40.527,-1000,-439.941,-399.414,247.07
1874.041,-447.754,-1000,-435.059,-442.871,308.594
1874.045,-827.148,-1000,-411.133,-458.496,-68.848
1874.049,-747.07,-1000,-419.922,-433.594,-131.836
1874.053,-534.668,-1000,-433.105,-408.203,105.957
1874.057,-514.16,-1000,-410.645,-402.344,-73.73
1874.057,-787.109,-1000,-395.996,-413.574,-291.016
1874.061,-1000,-1000,-402.832,-394.531,-216.309
1874.065,-995.605,-1000,-401.855,-383.301,-156.25
1874.069,-996.094,-1000,-384.277,-387.207,-195.801
1874.073,-1000,-1000,-377.441,-380.859,-313.965
1874.077,-1000,-1000,-391.113,-362.305,-55.176
1874.081,-1000,-1000,-386.23,-323.73,401.367
1874.085,-992.188,-1000,-355.957,-310.059,128.906
1874.089,-999.023,-1000,-350.098,-325.195,-215.332
1874.092,-965.82,-1000,-363.281,-326.172,-111.328
1874.096,-578.613,-1000,-359.375,-300.293,-90.82
1874.1,-153.32,-1000,-351.074,-270.508,-174.805
1874.117,-217.773,-1000,-360.352,-274.902,-84.473
1874.121,-253.906,-1000,-339.355,-286.621,40.039
1874.125,65.43,-1000,-301.758,-256.348,-30.762
1874.129,362.793,-1000,-293.457,-251.953,-121.582
1874.133,38.574,-1000,-289.062,-256.836,-46.875
1874.137,-346.191,-1000,-275.391,-248.047,63.965
1874.141,-23.926,-1000,-254.883,-225.586,-32.227
1874.144,218.262,-1000,-232.91,-187.012,-115.723
1874.148,193.848,-1000,-222.168,-186.523,-25.879
1874.152,93.262,-1000,-234.375,-207.52,184.57
1874.156,82.52,-1000,-211.914,-184.57,22.949
1874.16,278.32,-992.188,-180.664,-151.855,-174.805
1874.162,354.492,-1000,-167.48,-130.859,-12.695
1874.166,195.801,-871.094,-145.02,-128.418,22.461
1874.17,6.348,-769.531,-122.559,-148.438,-51.27
1874.174,282.715,-456.543,-103.516,-125.488,-96.68
1874.178,523.438,-318.848,-88.867,-83.984,92.285
1874.182,-51.27,-672.852,-72.754,-85.449,202.637
1874.185,-702.637,-527.832,-42.48,-79.102,-108.887
1874.189,-984.863,-27.344,-29.785,-50.781,-163.574
1874.193,-996.582,-176.27,-44.434,-44.922,160.645
1874.197,-993.164,-630.371,-37.598,-52.246,318.359
1874.201,-1000,-213.379,-21.973,-74.707,-17.578
1874.205,-1000,-99.609,-39.551,-47.852,-114.258
1874.208,-1000,-136.719,-48.34,-37.598,-93.75
1874.211,-1000,-107.91,-34.18,-70.801,-43.945
1874.215,-1000,-211.426,-36.621,-63.477,-97.168
1874.219,-1000,-231.445,-54.199,-53.223,-194.824
1874.223,-1000,-285.156,-58.594,-41.504,6.348
1874.227,-1000,-328.125,-51.27,-27.832,96.191
1874.231,-1000,-385.254,-52.246,-43.945,-31.25
1874.235,-1000,-405.273,-68.359,-62.012,-41.992
1874.239,-1000,-696.289,-84.473,-31.738,282.227
1874.243,-1000,-388.184,-89.355,-6.836,196.777
1874.247,-1000,208.984,-103.027,-25.879,-104.004
1874.251,-977.051,47.363,-115.723,-51.758,11.719
1874.252,-1000,187.988,-124.512,-65.918,51.758
1874.256,-802.734,645.508,-141.602,-66.406,-67.383
1874.26,-130.859,610.84,-156.25,-81.543,-209.473
1874.264,576.66,195.312,-169.434,-71.289,41.016
1874.268,972.168,172.363,-169.922,-35.156,390.625
1874.272,954.102,655.762,-174.316,-45.41,134.766
1874.276,958.008,901.367,-197.754,-76.172,-68.359
1874.28,967.285,652.344,-221.191,-90.82,47.852
1874.284,965.332,503.906,-227.051,-88.867,274.902
1874.287,965.332,935.059,-222.656,-96.68,10.254
1874.291,965.332,-994.629,-237.305,-99.121,-208.496
1874.295,965.332,761.719,-239.746,-114.258,-201.66
1874.298,965.332,466.797,-244.141,-144.531,-214.355
1874.302,965.332,494.629,-240.723,-137.207,-122.07
1874.306,964.844,388.184,-226.562,-114.258,-107.422
1874.31,965.332,77.637,-227.051,-148.926,-112.305
1874.314,965.332,145.996,-226.562,-181.152,-27.344
1874.318,965.332,208.984,-231.934,-145.996,3.906
1874.322,965.332,559.57,-231.934,-122.07,37.598
1874.326,965.332,884.766,-236.816,-111.328,427.246
1874.329,964.844,930.176,-209.473,-125,318.359
1874.333,964.844,970.215,-166.992,-121.582,-152.832
1874.337,964.844,962.402,-169.434,-82.031,-127.93
1874.341,964.844,967.285,-186.523,-74.219,-89.844
1874.342,965.332,965.82,-199.219,-104.492,-205.078
1874.346,965.332,965.82,-204.59,-113.77,-305.664
1874.35,964.844,965.82,-210.449,-82.031,-72.754
1874.354,965.332,965.82,-208.984,-50.293,28.809
1874.358,965.332,965.82,-215.82,-65.918,-111.816
1874.362,965.332,965.82,-224.121,-80.566,-164.062
1874.366,965.332,965.82,-207.52,-54.688,125.488
1874.369,964.844,965.82,-183.105,-43.945,441.895
1874.373,965.332,965.82,-166.504,-64.941,136.719
1874.377,965.332,965.82,-164.551,-82.031,-182.129
1874.381,964.844,965.82,-169.922,-85.938,-96.68
1874.385,965.332,965.82,-168.457,-69.336,-96.191
1874.389,965.332,965.82,-170.898,-75.684,-247.559
1874.393,965.332,965.82,-189.941,-78.125,-160.156
1874.397,965.332,965.82,-199.219,-72.266,-149.902
1874.4,965.332,965.82,-184.57,-58.105,-166.992
1874.404,965.332,965.82,-178.223,-54.199,-158.691
1874.408,964.844,965.82,-184.082,-49.316,-102.051
1874.412,965.332,965.82,-186.523,-39.551,153.809
1874.416,964.844,965.82,-174.316,-19.531,170.41
1874.42,964.844,965.82,-165.039,6.348,7.812
1874.424,964.844,965.82,-175.781,-22.461,57.617
1874.428,964.844,965.82,-192.383,-21.973,168.457
1874.432,964.844,965.82,-187.012,17.09,-1.465
1874.432,965.332,965.82,-171.387,20.996,-120.117
1874.436,965.332,965.82,-183.105,-1.953,35.156
1874.44,964.844,965.82,-190.918,-19.531,199.707
1874.444,965.332,966.309,-178.711,4.883,0.488
1874.448,965.332,965.82,-166.992,28.809,-122.559
1874.452,964.844,965.82,-176.758,20.996,204.59
1874.456,965.332,965.82,-189.941,-1.465,483.887
1874.46,964.844,965.82,-176.27,-10.742,69.336
1874.464,964.844,965.82,-170.898,4.883,-211.914
1874.467,965.332,965.82,-178.711,13.672,-94.727
1874.471,965.332,965.82,-182.617,14.16,-112.793
1874.475,965.332,965.82,-172.363,19.043,-193.848
1874.48,965.332,965.82,-160.645,15.137,-136.719
1874.484,965.332,965.82,-162.109,-7.812,-0.488
1874.488,965.332,965.82,-161.621,-22.949,5.859
1874.492,965.332,965.82,-166.016,-15.625,-68.359
1874.496,964.844,965.82,-174.316,-5.371,-54.199
1874.5,964.844,965.82,-166.016,15.625,104.004
1874.503,964.844,965.332,-166.504,25.879,67.383
1874.507,965.332,966.797,-166.504,11.719,-73.73
1874.511,964.844,965.332,-165.527,21.973,-79.59
1874.515,964.844,959.473,-165.039,52.734,155.762
1874.519,965.332,964.355,-155.762,47.852,101.074
1874.523,965.332,968.262,-167.48,20.02,-108.887
1874.537,965.332,956.543,-178.223,7.812,10.742
1874.541,965.332,952.148,-167.969,46.387,57.129
1874.545,964.844,956.055,-166.016,77.637,12.695
1874.549,964.844,911.621,-178.711,48.34,-34.18
1874.553,966.309,536.133,-174.805,45.41,96.191
1874.556,960.449,67.871,-165.527,23.438,568.359
1874.56,970.703,418.457,-166.504,-34.668,404.785
1874.564,943.848,870.117,-173.34,-59.082,-131.348
1874.568,802.734,293.457,-171.875,-44.434,-11.719
1874.572,767.09,94.727,-160.645,-24.414,120.117
1874.576,726.074,644.043,-146.973,-8.789,-104.492
1874.58,373.047,510.742,-148.926,0.977,-114.258
1874.582,-60.547,122.07,-157.227,-6.348,-43.945
1874.586,-212.402,106.934,-163.086,-24.902,-40.039
1874.59,-239.258,255.859,-155.273,2.441,-92.285
1874.594,-559.082,140.625,-152.832,28.32,-62.012
1874.598,-943.359,-307.129,-157.715,25.391,-81.055
1874.602,-1000,-561.035,-148.926,16.602,-56.152
1874.606,-990.234,-535.156,-140.625,31.25,-48.828
1874.609,-1000,-497.07,-135.742,67.383,-41.992
1874.613,-1000,-834.473,-144.043,51.758,347.656
1874.617,-1000,-907.715,-139.648,28.809,283.691
1874.621,-1000,-333.984,-115.723,46.387,-87.891
1874.625,-1000,-301.27,-113.77,60.059,-48.828
1874.627,-1000,-562.012,-116.699,32.715,-97.656
1874.631,-1000,-533.691,-120.605,-2.93,-110.352
1874.635,-1000,-641.113,-133.789,-16.113,-68.359
1874.639,-1000,-842.773,-133.301,-3.906,93.75
1874.643,-1000,-872.07,-132.324,-15.137,114.746
1874.647,-1000,-774.414,-124.512,-36.133,-31.25
1874.65,-1000,-799.316,-107.422,2.441,-37.109
1874.654,-1000,-884.277,-107.422,48.34,203.125
1874.658,-1000,-983.887,-112.305,55.176,493.652
1874.662,-1000,-726.074,-103.516,27.344,-17.578
1874.666,-1000,-590.332,-97.656,30.762,-398.438
1874.67,-1000,-567.871,-84.961,76.66,-182.617
1874.673,-1000,-269.043,-75.684,77.637,11.719
1874.677,-1000,-169.434,-76.172,62.988,-41.016
1874.681,-1000,-380.371,-78.125,76.172,-89.844
1874.685,-1000,-492.188,-79.59,66.406,-115.723
1874.689,-1000,-348.145,-73.242,64.453,-157.715
1874.693,-1000,-468.75,-68.848,82.52,-150.391
1874.697,-1000,-674.805,-61.035,66.406,-59.082
1874.7,-1000,-915.039,-58.105,66.406,291.016
1874.704,-1000,-616.211,-46.875,84.961,162.109
1874.708,-1000,-198.73,-44.434,67.383,-183.105
1874.712,-995.605,-578.613,-61.035,24.902,-55.664
1874.716,-1000,-731.445,-61.523,5.859,33.691
1874.717,-979.98,-337.402,-50.781,28.32,-122.07
1874.721,-867.676,-179.199,-55.176,43.457,-260.254
1874.725,-911.621,-641.113,-73.242,41.992,-82.52
1874.729,-873.047,-925.781,-66.406,40.039,-10.742
1874.733,-480.469,-636.23,-47.852,48.828,-198.242
1874.737,-233.887,-672.363,-47.363,52.246,-225.098
1874.741,-413.574,-915.039,-56.641,38.086,95.703
1874.745,-487.793,-1000,-53.711,34.18,461.426
1874.748,-198.242,-830.566,-30.762,28.809,105.469
1874.752,23.438,-600.586,-22.949,44.434,-141.113
1874.756,-153.809,-832.031,-27.832,42.969,-158.203
1874.76,-390.625,-1000,-32.227,29.785,-207.52
1874.765,-244.141,-993.652,-29.297,28.809,-230.957
1874.769,65.43,-949.219,-29.785,39.551,-230.469
1874.773,-23.926,-949.707,-41.992,41.504,35.645
1874.777,-479.004,-998.535,-36.133,31.25,53.223
1874.781,-663.086,-999.512,-26.367,31.25,-133.301
1874.785,-480.957,-1000,-34.668,41.504,-132.812
1874.788,-544.922,-1000,-39.551,50.293,178.711
1874.792,-889.648,-1000,-28.32,62.5,140.137
1874.796,-1000,-1000,-30.273,45.898,-235.84
1874.8,-846.68,-1000,-34.668,55.664,-148.926
1874.804,-646.484,-1000,-31.738,60.059,-38.574
1874.808,-869.629,-1000,-31.738,0.488,-207.031
1874.808,-1000,-1000,-33.203,-9.277,-268.555
1874.812,-999.512,-1000,-30.273,25.391,-184.082
1874.816,-912.109,-1000,-37.109,31.738,-94.727
1874.82,-912.598,-1000,-40.039,17.578,-90.82
1874.824,-1000,-1000,-30.762,13.672,-225.586
1874.828,-999.512,-1000,-30.762,21.484,2.93
